# Spectrum of AT2015cq in coordinate: 16:29:38.6 +40:14:10
# Produced from MaNGA data by Sun Luming on 2018/05/02
#wavelength  flux(1e-17erg/s/cm^2/A)  error
3621.60  1.21   1.99
3622.43  0.60   1.99
3623.26  0.66   1.91
3624.10  0.67   1.93
3624.93  0.60   1.86
3625.77  1.08   1.87
3626.60  1.21   1.87
3627.44  0.49   1.82
3628.27  0.20   1.86
3629.11  0.46   1.92
3629.94  0.57   1.89
3630.78  0.25   1.94
3631.62  -0.14  1.95
3632.45  0.46   1.96
3633.29  1.25   1.99
3634.13  1.11   1.96
3634.96  0.76   1.94
3635.80  0.49   1.96
3636.64  0.22   1.88
3637.47  0.20   1.93
3638.31  -0.04  1.85
3639.15  0.12   1.83
3639.99  0.10   1.84
3640.83  -0.92  1.74
3641.67  -1.07  1.72
3642.50  -0.25  1.80
3643.34  -0.08  1.71
3644.18  -0.47  1.72
3645.02  -1.15  1.69
3645.86  -1.17  1.70
3646.70  -0.36  1.72
3647.54  0.25   1.67
3648.38  0.68   1.67
3649.22  0.70   1.71
3650.06  0.12   1.78
3650.90  -0.34  1.79
3651.74  -0.11  1.77
3652.58  -0.09  1.74
3653.42  -0.76  1.67
3654.26  -1.17  1.69
3655.11  -0.54  1.70
3655.95  1.24   1.73
3656.79  2.51   1.78
3657.63  1.91   1.66
3658.47  1.16   1.64
3659.32  1.29   1.66
3660.16  1.37   1.65
3661.00  0.77   1.63
3661.85  -0.72  1.59
3662.69  -2.22  1.58
3663.53  -2.88  1.54
3664.38  -2.27  1.52
3665.22  -1.35  1.55
3666.06  -1.20  1.49
3666.91  -1.27  1.45
3667.75  -0.41  1.46
3668.60  0.77   1.47
3669.44  1.29   1.47
3670.29  1.41   1.45
3671.13  1.41   1.45
3671.98  1.11   1.43
3672.82  1.29   1.42
3673.67  2.21   1.47
3674.51  2.48   1.46
3675.36  1.65   1.41
3676.21  1.11   1.39
3677.05  1.09   1.39
3677.90  0.54   1.40
3678.75  -0.10  1.33
3679.59  0.10   1.37
3680.44  0.52   1.34
3681.29  0.65   1.31
3682.14  0.78   1.27
3682.99  0.53   1.30
3683.83  -0.23  1.28
3684.68  -0.97  1.23
3685.53  -0.76  1.22
3686.38  -0.06  1.23
3687.23  0.57   1.23
3688.08  1.15   1.26
3688.93  1.18   1.26
3689.78  0.84   1.23
3690.63  1.19   1.22
3691.48  1.51   1.28
3692.33  0.58   1.23
3693.18  -0.39  1.19
3694.03  -0.38  1.18
3694.88  0.06   1.16
3695.73  0.40   1.15
3696.58  0.54   1.18
3697.43  0.31   1.21
3698.28  0.28   1.22
3699.13  0.67   1.28
3699.99  1.12   1.25
3700.84  1.44   1.27
3701.69  1.03   1.26
3702.54  0.25   1.20
3703.39  -0.58  1.20
3704.25  -1.54  1.16
3705.10  -1.72  1.13
3705.95  -1.31  1.17
3706.81  -1.48  1.16
3707.66  -1.36  1.13
3708.51  -0.12  1.20
3709.37  0.60   1.20
3710.22  0.47   1.13
3711.08  0.65   1.14
3711.93  0.84   1.17
3712.79  0.50   1.13
3713.64  0.33   1.16
3714.50  0.30   1.15
3715.35  -0.07  1.13
3716.21  -0.30  1.08
3717.06  0.25   1.09
3717.92  0.97   1.12
3718.78  1.00   1.09
3719.63  0.61   1.06
3720.49  0.25   1.05
3721.35  0.09   1.02
3722.20  0.11   1.06
3723.06  0.05   1.01
3723.92  0.30   1.04
3724.77  0.77   1.02
3725.63  0.96   1.01
3726.49  0.85   1.02
3727.35  0.45   0.99
3728.21  0.27   1.02
3729.07  0.51   1.01
3729.92  0.72   1.03
3730.78  0.32   1.01
3731.64  -0.48  0.99
3732.50  -0.18  1.08
3733.36  0.10   1.09
3734.22  -0.66  1.06
3735.08  -0.60  1.04
3735.94  0.36   1.08
3736.80  0.60   1.09
3737.66  0.20   1.07
3738.52  -0.03  1.08
3739.38  0.24   1.11
3740.24  0.51   1.13
3741.11  0.34   1.12
3741.97  0.56   1.09
3742.83  1.37   1.11
3743.69  1.86   1.11
3744.55  1.16   1.08
3745.42  -0.07  1.00
3746.28  -0.42  0.98
3747.14  0.26   1.02
3748.00  0.90   1.04
3748.87  0.70   0.99
3749.73  0.28   0.96
3750.59  0.28   0.99
3751.46  0.53   0.99
3752.32  0.40   0.99
3753.19  -0.28  0.93
3754.05  -0.54  0.91
3754.91  -0.26  0.96
3755.78  0.03   0.96
3756.64  0.21   0.96
3757.51  -0.16  0.89
3758.37  -0.51  0.88
3759.24  -0.38  0.89
3760.11  -0.46  0.89
3760.97  -0.97  0.88
3761.84  -1.56  0.85
3762.70  -1.70  0.81
3763.57  -1.02  0.84
3764.44  -0.28  0.86
3765.30  -0.14  0.85
3766.17  -0.13  0.86
3767.04  -0.10  0.85
3767.91  -0.06  0.82
3768.77  0.28   0.84
3769.64  0.31   0.82
3770.51  -0.26  0.79
3771.38  -0.41  0.80
3772.25  -0.10  0.85
3773.11  0.00   0.87
3773.98  0.29   0.85
3774.85  0.60   0.89
3775.72  0.15   0.86
3776.59  -0.31  0.82
3777.46  -0.37  0.85
3778.33  -0.53  0.84
3779.20  -0.80  0.83
3780.07  -1.09  0.80
3780.94  -1.12  0.78
3781.81  -0.64  0.78
3782.68  0.14   0.81
3783.55  0.59   0.81
3784.43  0.44   0.79
3785.30  0.24   0.80
3786.17  0.34   0.79
3787.04  0.47   0.79
3787.91  0.22   0.75
3788.79  -0.18  0.72
3789.66  -0.37  0.75
3790.53  -0.49  0.77
3791.40  -0.65  0.78
3792.28  -0.87  0.78
3793.15  -0.99  0.73
3794.02  -0.22  0.76
3794.90  0.82   0.79
3795.77  0.88   0.80
3796.64  0.23   0.75
3797.52  0.02   0.77
3798.39  -0.13  0.71
3799.27  -0.14  0.70
3800.14  0.45   0.75
3801.02  0.33   0.74
3801.89  -0.04  0.72
3802.77  0.37   0.76
3803.65  0.64   0.77
3804.52  0.58   0.75
3805.40  0.36   0.75
3806.27  -0.13  0.71
3807.15  -0.31  0.71
3808.03  -0.21  0.72
3808.90  -0.43  0.72
3809.78  -0.98  0.69
3810.66  -1.34  0.67
3811.54  -1.24  0.67
3812.41  -0.71  0.69
3813.29  -0.12  0.73
3814.17  0.29   0.74
3815.05  0.36   0.77
3815.93  0.11   0.74
3816.81  0.07   0.73
3817.68  0.30   0.73
3818.56  0.50   0.73
3819.44  0.53   0.73
3820.32  0.38   0.70
3821.20  0.42   0.73
3822.08  0.63   0.74
3822.96  0.80   0.75
3823.84  0.81   0.77
3824.72  0.47   0.72
3825.60  0.10   0.69
3826.48  -0.21  0.67
3827.37  -0.37  0.68
3828.25  -0.11  0.72
3829.13  0.24   0.75
3830.01  0.19   0.78
3830.89  -0.25  0.83
3831.77  -0.60  0.87
3832.66  -0.68  0.86
3833.54  -0.54  0.85
3834.42  -0.56  0.87
3835.31  -1.00  0.84
3836.19  -1.19  0.77
3837.07  -0.97  0.73
3837.96  -0.88  0.70
3838.84  -0.85  0.69
3839.72  -0.69  0.68
3840.61  -0.34  0.67
3841.49  -0.29  0.69
3842.38  -0.63  0.66
3843.26  -0.65  0.66
3844.15  -0.29  0.66
3845.03  -0.02  0.66
3845.92  0.17   0.68
3846.80  0.52   0.70
3847.69  0.65   0.70
3848.58  0.24   0.67
3849.46  -0.29  0.63
3850.35  -0.41  0.65
3851.23  -0.43  0.66
3852.12  -0.94  0.64
3853.01  -1.50  0.59
3853.90  -1.14  0.61
3854.78  -0.36  0.64
3855.67  -0.17  0.64
3856.56  -0.50  0.61
3857.45  -0.64  0.60
3858.34  -0.39  0.59
3859.22  -0.07  0.57
3860.11  0.64   0.58
3861.00  1.43   0.63
3861.89  1.27   0.65
3862.78  0.57   0.63
3863.67  0.07   0.63
3864.56  -0.15  0.62
3865.45  -0.10  0.61
3866.34  0.10   0.60
3867.23  0.08   0.59
3868.12  -0.10  0.58
3869.01  -0.23  0.59
3869.90  -0.31  0.57
3870.79  -0.40  0.57
3871.68  -0.55  0.54
3872.58  -0.41  0.57
3873.47  -0.24  0.57
3874.36  -0.29  0.59
3875.25  -0.47  0.58
3876.14  -0.49  0.57
3877.04  -0.09  0.58
3877.93  0.40   0.58
3878.82  0.72   0.57
3879.72  1.08   0.58
3880.61  0.94   0.58
3881.50  0.14   0.55
3882.40  -0.22  0.53
3883.29  0.12   0.57
3884.19  0.35   0.58
3885.08  0.40   0.57
3885.98  0.31   0.57
3886.87  0.25   0.55
3887.76  0.33   0.57
3888.66  0.42   0.57
3889.56  0.49   0.58
3890.45  0.27   0.58
3891.35  -0.22  0.56
3892.24  -0.35  0.56
3893.14  -0.19  0.57
3894.04  -0.09  0.57
3894.93  0.12   0.57
3895.83  0.33   0.58
3896.73  0.28   0.57
3897.62  0.08   0.56
3898.52  -0.07  0.56
3899.42  -0.27  0.55
3900.32  -0.48  0.55
3901.22  -0.61  0.56
3902.11  -0.65  0.56
3903.01  -0.72  0.57
3903.91  -0.78  0.56
3904.81  -0.56  0.58
3905.71  -0.17  0.61
3906.61  0.32   0.63
3907.51  0.60   0.65
3908.41  0.80   0.64
3909.31  1.23   0.66
3910.21  1.47   0.66
3911.11  1.35   0.67
3912.01  0.88   0.66
3912.91  0.23   0.65
3913.81  -0.30  0.65
3914.71  -0.47  0.64
3915.62  -0.33  0.62
3916.52  -0.00  0.61
3917.42  0.28   0.60
3918.32  0.30   0.59
3919.22  0.13   0.58
3920.13  -0.09  0.57
3921.03  -0.16  0.56
3921.93  -0.05  0.55
3922.83  0.14   0.55
3923.74  0.26   0.55
3924.64  0.39   0.55
3925.55  0.55   0.55
3926.45  0.60   0.55
3927.35  0.44   0.53
3928.26  0.17   0.52
3929.16  -0.04  0.51
3930.07  0.04   0.51
3930.97  0.42   0.52
3931.88  0.59   0.53
3932.78  0.26   0.52
3933.69  -0.18  0.51
3934.59  -0.38  0.52
3935.50  -0.50  0.50
3936.41  -0.50  0.50
3937.31  -0.40  0.50
3938.22  -0.36  0.49
3939.13  -0.27  0.50
3940.03  -0.41  0.53
3940.94  -1.10  0.53
3941.85  -1.78  0.52
3942.76  -1.71  0.52
3943.66  -0.97  0.54
3944.57  -0.50  0.55
3945.48  -0.44  0.53
3946.39  -0.11  0.54
3947.30  0.39   0.55
3948.21  0.66   0.54
3949.12  0.80   0.55
3950.03  0.75   0.54
3950.94  0.50   0.55
3951.85  0.38   0.54
3952.76  0.39   0.55
3953.67  0.23   0.54
3954.58  0.05   0.53
3955.49  0.09   0.54
3956.40  0.18   0.55
3957.31  0.15   0.54
3958.22  0.06   0.55
3959.13  -0.10  0.53
3960.04  -0.14  0.54
3960.96  -0.04  0.56
3961.87  0.15   0.56
3962.78  0.61   0.56
3963.69  0.92   0.57
3964.61  0.61   0.53
3965.52  0.25   0.51
3966.43  0.13   0.52
3967.35  -0.00  0.52
3968.26  -0.05  0.51
3969.17  0.07   0.50
3970.09  0.29   0.51
3971.00  0.46   0.50
3971.92  0.50   0.52
3972.83  0.15   0.52
3973.75  -0.42  0.51
3974.66  -0.60  0.52
3975.58  -0.37  0.54
3976.49  -0.04  0.55
3977.41  0.15   0.56
3978.32  0.14   0.56
3979.24  0.02   0.55
3980.16  -0.13  0.55
3981.07  -0.27  0.56
3981.99  -0.51  0.54
3982.91  -0.49  0.52
3983.82  -0.02  0.55
3984.74  0.39   0.56
3985.66  0.64   0.57
3986.58  0.55   0.55
3987.49  0.08   0.53
3988.41  -0.30  0.53
3989.33  -0.38  0.54
3990.25  -0.23  0.53
3991.17  0.32   0.54
3992.09  0.67   0.56
3993.01  0.15   0.53
3993.93  -0.59  0.51
3994.85  -0.73  0.52
3995.77  -0.64  0.51
3996.69  -0.49  0.51
3997.61  -0.14  0.51
3998.53  0.23   0.53
3999.45  0.43   0.53
4000.37  0.44   0.53
4001.29  0.22   0.53
4002.21  0.02   0.49
4003.13  0.04   0.51
4004.05  -0.05  0.50
4004.98  -0.03  0.51
4005.90  0.27   0.53
4006.82  0.43   0.54
4007.74  0.31   0.54
4008.67  0.31   0.57
4009.59  0.23   0.58
4010.51  -0.05  0.57
4011.44  -0.06  0.56
4012.36  0.12   0.58
4013.28  0.02   0.56
4014.21  -0.09  0.56
4015.13  -0.05  0.55
4016.06  -0.03  0.55
4016.98  0.09   0.54
4017.91  0.13   0.54
4018.83  0.02   0.54
4019.76  -0.03  0.55
4020.68  0.13   0.57
4021.61  0.29   0.58
4022.54  0.37   0.57
4023.46  0.40   0.58
4024.39  0.01   0.56
4025.32  -0.43  0.53
4026.24  -0.02  0.55
4027.17  0.55   0.55
4028.10  0.46   0.53
4029.03  0.13   0.53
4029.95  0.09   0.53
4030.88  0.17   0.53
4031.81  -0.01  0.52
4032.74  -0.35  0.49
4033.67  -0.22  0.50
4034.60  0.35   0.51
4035.52  0.63   0.52
4036.45  0.43   0.52
4037.38  0.17   0.50
4038.31  0.15   0.51
4039.24  0.12   0.51
4040.17  -0.12  0.50
4041.10  -0.19  0.50
4042.03  -0.01  0.52
4042.97  -0.09  0.52
4043.90  -0.43  0.52
4044.83  -0.55  0.52
4045.76  -0.19  0.55
4046.69  0.60   0.65
4047.62  1.34   0.70
4048.55  1.53   0.68
4049.49  1.11   0.59
4050.42  0.71   0.53
4051.35  0.84   0.53
4052.29  0.84   0.52
4053.22  0.44   0.50
4054.15  0.13   0.50
4055.09  0.24   0.50
4056.02  0.33   0.52
4056.95  0.14   0.49
4057.89  0.08   0.48
4058.82  0.31   0.48
4059.76  0.76   0.51
4060.69  0.91   0.53
4061.63  0.61   0.52
4062.56  0.42   0.51
4063.50  0.44   0.52
4064.43  0.62   0.54
4065.37  0.99   0.55
4066.31  1.01   0.56
4067.24  0.47   0.53
4068.18  0.04   0.52
4069.12  0.21   0.52
4070.05  0.52   0.54
4070.99  0.35   0.51
4071.93  -0.02  0.50
4072.86  -0.21  0.50
4073.80  -0.36  0.49
4074.74  -0.42  0.48
4075.68  -0.27  0.50
4076.62  -0.36  0.52
4077.56  -0.61  0.52
4078.50  -0.52  0.52
4079.43  -0.47  0.51
4080.37  -0.65  0.48
4081.31  -0.45  0.49
4082.25  0.13   0.50
4083.19  0.61   0.49
4084.13  0.76   0.48
4085.07  0.76   0.48
4086.02  0.99   0.48
4086.96  1.36   0.51
4087.90  1.40   0.51
4088.84  1.17   0.50
4089.78  1.03   0.49
4090.72  1.11   0.50
4091.66  1.05   0.50
4092.61  0.67   0.49
4093.55  0.40   0.49
4094.49  0.23   0.50
4095.43  0.01   0.48
4096.38  -0.18  0.48
4097.32  -0.18  0.48
4098.26  -0.11  0.49
4099.21  -0.06  0.48
4100.15  0.22   0.48
4101.10  0.61   0.51
4102.04  0.65   0.49
4102.99  0.41   0.48
4103.93  0.32   0.49
4104.88  0.44   0.47
4105.82  0.47   0.49
4106.77  0.19   0.47
4107.71  0.06   0.47
4108.66  0.23   0.50
4109.60  0.29   0.49
4110.55  0.20   0.49
4111.50  0.13   0.49
4112.44  0.11   0.48
4113.39  0.25   0.48
4114.34  0.44   0.49
4115.29  0.41   0.49
4116.23  0.20   0.50
4117.18  -0.20  0.48
4118.13  -0.52  0.46
4119.08  -0.23  0.47
4120.03  0.20   0.48
4120.98  0.44   0.48
4121.92  0.62   0.49
4122.87  0.44   0.49
4123.82  0.07   0.47
4124.77  -0.01  0.49
4125.72  -0.18  0.49
4126.67  -0.37  0.47
4127.62  -0.05  0.48
4128.57  0.38   0.49
4129.52  0.42   0.49
4130.48  0.31   0.49
4131.43  0.30   0.48
4132.38  0.34   0.49
4133.33  0.41   0.49
4134.28  0.61   0.50
4135.23  0.53   0.51
4136.19  -0.02  0.49
4137.14  -0.36  0.48
4138.09  -0.32  0.48
4139.04  -0.04  0.48
4140.00  0.25   0.49
4140.95  0.41   0.49
4141.90  0.39   0.49
4142.86  0.08   0.47
4143.81  -0.31  0.46
4144.77  -0.61  0.46
4145.72  -0.76  0.45
4146.67  -0.55  0.46
4147.63  -0.06  0.46
4148.59  0.24   0.46
4149.54  0.22   0.46
4150.50  0.19   0.46
4151.45  0.40   0.46
4152.41  0.66   0.48
4153.36  0.62   0.48
4154.32  0.40   0.48
4155.28  0.15   0.49
4156.23  -0.11  0.48
4157.19  -0.30  0.49
4158.15  -0.62  0.48
4159.11  -1.04  0.46
4160.06  -1.09  0.46
4161.02  -0.82  0.47
4161.98  -0.37  0.48
4162.94  0.30   0.49
4163.90  0.87   0.51
4164.86  0.66   0.52
4165.82  0.13   0.52
4166.77  -0.01  0.53
4167.73  -0.03  0.51
4168.69  0.05   0.51
4169.65  0.17   0.50
4170.61  0.06   0.50
4171.57  -0.01  0.49
4172.54  -0.04  0.49
4173.50  -0.12  0.49
4174.46  -0.19  0.48
4175.42  -0.20  0.47
4176.38  -0.15  0.47
4177.34  -0.22  0.48
4178.30  -0.42  0.47
4179.27  -0.37  0.47
4180.23  -0.01  0.48
4181.19  0.33   0.48
4182.15  0.53   0.47
4183.12  0.61   0.47
4184.08  0.71   0.46
4185.04  0.94   0.47
4186.01  1.07   0.48
4186.97  0.74   0.47
4187.94  0.25   0.45
4188.90  0.03   0.45
4189.86  -0.05  0.45
4190.83  -0.05  0.45
4191.79  0.05   0.45
4192.76  0.09   0.46
4193.73  -0.05  0.45
4194.69  -0.01  0.45
4195.66  0.32   0.45
4196.62  0.63   0.45
4197.59  0.76   0.46
4198.56  0.56   0.45
4199.52  0.09   0.43
4200.49  -0.22  0.43
4201.46  -0.13  0.43
4202.43  0.19   0.45
4203.39  0.50   0.44
4204.36  0.60   0.45
4205.33  0.48   0.45
4206.30  0.37   0.45
4207.27  0.62   0.47
4208.24  0.84   0.49
4209.20  0.46   0.48
4210.17  -0.33  0.46
4211.14  -0.82  0.43
4212.11  -0.68  0.44
4213.08  -0.49  0.44
4214.05  -0.53  0.44
4215.02  -0.70  0.43
4215.99  -0.96  0.42
4216.96  -1.05  0.43
4217.94  -0.87  0.44
4218.91  -0.43  0.43
4219.88  0.03   0.42
4220.85  0.25   0.41
4221.82  0.17   0.41
4222.79  0.04   0.40
4223.77  0.01   0.42
4224.74  -0.05  0.42
4225.71  0.03   0.42
4226.69  0.13   0.43
4227.66  0.02   0.41
4228.63  0.12   0.41
4229.61  0.24   0.42
4230.58  0.05   0.42
4231.56  -0.15  0.42
4232.53  -0.17  0.43
4233.50  -0.23  0.43
4234.48  -0.43  0.43
4235.45  -0.66  0.43
4236.43  -0.79  0.42
4237.41  -0.71  0.42
4238.38  -0.34  0.43
4239.36  0.22   0.44
4240.33  0.48   0.44
4241.31  0.37   0.43
4242.29  0.30   0.43
4243.26  0.25   0.44
4244.24  -0.01  0.43
4245.22  -0.27  0.42
4246.20  -0.34  0.44
4247.17  -0.41  0.46
4248.15  -0.60  0.46
4249.13  -0.73  0.44
4250.11  -0.48  0.44
4251.09  -0.16  0.43
4252.07  -0.03  0.43
4253.05  -0.06  0.44
4254.02  -0.08  0.43
4255.00  0.06   0.44
4255.98  0.21   0.44
4256.96  0.23   0.45
4257.94  0.18   0.44
4258.93  0.05   0.45
4259.91  -0.30  0.43
4260.89  -0.58  0.42
4261.87  -0.37  0.43
4262.85  -0.05  0.43
4263.83  0.12   0.43
4264.81  0.20   0.43
4265.80  0.13   0.44
4266.78  -0.19  0.44
4267.76  -0.53  0.43
4268.74  -0.45  0.43
4269.73  0.09   0.44
4270.71  0.27   0.45
4271.69  -0.28  0.42
4272.68  -0.60  0.42
4273.66  -0.33  0.43
4274.64  0.04   0.43
4275.63  0.41   0.44
4276.61  0.50   0.44
4277.60  0.17   0.43
4278.58  -0.06  0.43
4279.57  0.21   0.44
4280.55  0.58   0.45
4281.54  0.50   0.44
4282.53  0.38   0.44
4283.51  0.33   0.44
4284.50  0.11   0.44
4285.49  0.00   0.43
4286.47  0.05   0.43
4287.46  0.09   0.44
4288.45  0.02   0.43
4289.43  -0.13  0.42
4290.42  -0.31  0.41
4291.41  -0.50  0.41
4292.40  -0.59  0.41
4293.39  -0.25  0.42
4294.38  0.19   0.44
4295.36  0.25   0.43
4296.35  0.12   0.43
4297.34  0.01   0.43
4298.33  0.01   0.42
4299.32  0.27   0.43
4300.31  0.62   0.44
4301.30  0.67   0.43
4302.29  0.42   0.42
4303.28  0.13   0.41
4304.27  0.21   0.42
4305.27  0.54   0.43
4306.26  0.49   0.43
4307.25  0.13   0.42
4308.24  -0.14  0.43
4309.23  -0.23  0.43
4310.23  -0.01  0.43
4311.22  0.35   0.44
4312.21  0.53   0.44
4313.20  0.53   0.45
4314.20  0.23   0.46
4315.19  -0.28  0.45
4316.18  -0.51  0.46
4317.18  -0.44  0.44
4318.17  -0.26  0.45
4319.17  -0.07  0.44
4320.16  0.29   0.44
4321.16  0.45   0.46
4322.15  0.16   0.44
4323.15  0.09   0.43
4324.14  0.32   0.43
4325.14  0.48   0.42
4326.13  0.63   0.44
4327.13  0.54   0.44
4328.13  0.18   0.44
4329.12  -0.19  0.42
4330.12  -0.23  0.42
4331.12  0.08   0.42
4332.11  0.31   0.44
4333.11  0.40   0.44
4334.11  0.24   0.44
4335.11  -0.12  0.42
4336.11  -0.13  0.42
4337.11  0.21   0.43
4338.10  0.51   0.43
4339.10  0.71   0.44
4340.10  0.67   0.42
4341.10  0.66   0.43
4342.10  0.74   0.44
4343.10  0.55   0.44
4344.10  0.12   0.43
4345.10  -0.28  0.42
4346.10  -0.40  0.42
4347.10  -0.28  0.42
4348.10  0.16   0.43
4349.11  0.66   0.45
4350.11  0.73   0.44
4351.11  0.45   0.43
4352.11  0.17   0.42
4353.11  0.02   0.42
4354.12  -0.16  0.42
4355.12  -0.35  0.42
4356.12  -0.35  0.44
4357.13  -0.19  0.49
4358.13  0.24   0.64
4359.13  0.88   0.76
4360.14  1.19   0.76
4361.14  0.84   0.65
4362.14  0.37   0.52
4363.15  0.34   0.46
4364.15  0.43   0.45
4365.16  0.41   0.43
4366.16  0.44   0.44
4367.17  0.51   0.44
4368.17  0.49   0.44
4369.18  0.35   0.44
4370.19  0.11   0.43
4371.19  -0.16  0.42
4372.20  -0.32  0.41
4373.21  -0.26  0.40
4374.21  -0.04  0.42
4375.22  0.15   0.43
4376.23  0.29   0.44
4377.24  0.43   0.44
4378.24  0.42   0.43
4379.25  0.29   0.43
4380.26  0.12   0.42
4381.27  0.05   0.42
4382.28  0.17   0.42
4383.29  0.22   0.42
4384.30  0.14   0.41
4385.31  0.14   0.41
4386.32  0.17   0.42
4387.33  0.01   0.41
4388.34  -0.17  0.41
4389.35  -0.21  0.41
4390.36  -0.32  0.41
4391.37  -0.23  0.40
4392.38  -0.02  0.42
4393.39  -0.03  0.41
4394.40  -0.09  0.41
4395.42  -0.01  0.41
4396.43  0.04   0.41
4397.44  0.16   0.40
4398.45  0.59   0.42
4399.47  0.88   0.44
4400.48  0.77   0.43
4401.49  0.51   0.44
4402.51  0.09   0.44
4403.52  -0.23  0.43
4404.53  -0.05  0.44
4405.55  0.37   0.45
4406.56  0.54   0.45
4407.58  0.34   0.45
4408.59  -0.04  0.44
4409.61  -0.41  0.44
4410.62  -0.60  0.43
4411.64  -0.55  0.42
4412.66  -0.29  0.44
4413.67  -0.03  0.44
4414.69  0.32   0.43
4415.70  0.70   0.45
4416.72  0.55   0.45
4417.74  0.03   0.44
4418.76  -0.19  0.43
4419.77  -0.13  0.43
4420.79  -0.23  0.43
4421.81  -0.42  0.43
4422.83  -0.38  0.43
4423.85  -0.14  0.42
4424.86  0.08   0.42
4425.88  0.29   0.43
4426.90  0.42   0.43
4427.92  0.32   0.43
4428.94  0.17   0.42
4429.96  0.14   0.42
4430.98  0.06   0.41
4432.00  0.04   0.41
4433.02  0.18   0.42
4434.04  0.31   0.41
4435.07  0.36   0.41
4436.09  0.36   0.41
4437.11  0.37   0.41
4438.13  0.51   0.42
4439.15  0.66   0.43
4440.17  0.57   0.44
4441.20  0.26   0.43
4442.22  -0.02  0.42
4443.24  -0.14  0.42
4444.27  -0.18  0.42
4445.29  -0.33  0.42
4446.31  -0.53  0.42
4447.34  -0.61  0.42
4448.36  -0.57  0.40
4449.39  -0.29  0.40
4450.41  0.18   0.41
4451.43  0.45   0.42
4452.46  0.45   0.42
4453.48  0.17   0.41
4454.51  -0.32  0.40
4455.54  -0.58  0.39
4456.56  -0.52  0.40
4457.59  -0.55  0.39
4458.62  -0.80  0.39
4459.64  -1.12  0.38
4460.67  -1.23  0.38
4461.70  -1.11  0.39
4462.72  -0.95  0.40
4463.75  -0.73  0.41
4464.78  -0.51  0.40
4465.81  -0.14  0.39
4466.84  0.44   0.39
4467.86  0.75   0.41
4468.89  0.64   0.39
4469.92  0.47   0.40
4470.95  0.34   0.40
4471.98  0.23   0.39
4473.01  0.18   0.40
4474.04  -0.06  0.41
4475.07  -0.42  0.40
4476.10  -0.45  0.40
4477.13  -0.16  0.41
4478.16  0.03   0.41
4479.20  0.16   0.40
4480.23  0.40   0.41
4481.26  0.57   0.41
4482.29  0.57   0.41
4483.32  0.39   0.41
4484.35  0.28   0.41
4485.39  0.39   0.42
4486.42  0.48   0.42
4487.45  0.43   0.42
4488.49  0.34   0.41
4489.52  0.19   0.41
4490.55  -0.16  0.40
4491.59  -0.39  0.39
4492.62  -0.38  0.40
4493.66  -0.34  0.41
4494.69  -0.30  0.40
4495.73  -0.32  0.41
4496.76  -0.34  0.40
4497.80  -0.22  0.41
4498.83  -0.08  0.41
4499.87  0.16   0.41
4500.91  0.51   0.41
4501.94  0.56   0.41
4502.98  0.22   0.40
4504.02  0.08   0.40
4505.05  0.15   0.41
4506.09  0.05   0.41
4507.13  -0.15  0.41
4508.17  -0.21  0.40
4509.20  0.07   0.40
4510.24  0.44   0.40
4511.28  0.82   0.40
4512.32  1.15   0.41
4513.36  0.99   0.40
4514.40  0.60   0.40
4515.44  0.37   0.40
4516.48  0.30   0.40
4517.52  0.38   0.40
4518.56  0.34   0.40
4519.60  0.22   0.39
4520.64  0.38   0.40
4521.68  0.65   0.41
4522.72  0.68   0.41
4523.76  0.54   0.40
4524.81  0.43   0.40
4525.85  0.39   0.40
4526.89  0.40   0.40
4527.93  0.42   0.41
4528.98  0.22   0.40
4530.02  -0.05  0.40
4531.06  -0.05  0.40
4532.11  0.10   0.41
4533.15  0.25   0.40
4534.19  0.43   0.41
4535.24  0.61   0.41
4536.28  0.67   0.41
4537.33  0.66   0.42
4538.37  0.42   0.41
4539.42  0.04   0.41
4540.46  -0.05  0.40
4541.51  -0.02  0.41
4542.55  -0.08  0.40
4543.60  0.13   0.40
4544.65  0.59   0.42
4545.69  0.89   0.42
4546.74  0.94   0.43
4547.79  0.65   0.42
4548.83  0.17   0.41
4549.88  -0.05  0.40
4550.93  0.12   0.40
4551.98  0.27   0.41
4553.02  0.24   0.40
4554.07  0.25   0.41
4555.12  0.23   0.41
4556.17  0.12   0.39
4557.22  0.07   0.40
4558.27  -0.02  0.40
4559.32  -0.11  0.40
4560.37  -0.01  0.40
4561.42  0.14   0.40
4562.47  0.28   0.39
4563.52  0.56   0.40
4564.57  0.82   0.40
4565.62  0.66   0.40
4566.67  0.15   0.39
4567.73  -0.25  0.38
4568.78  -0.24  0.39
4569.83  -0.00  0.40
4570.88  0.12   0.39
4571.93  0.12   0.39
4572.99  0.22   0.39
4574.04  0.22   0.39
4575.09  0.04   0.39
4576.15  -0.06  0.39
4577.20  0.09   0.40
4578.26  0.29   0.40
4579.31  0.18   0.41
4580.36  -0.25  0.40
4581.42  -0.62  0.39
4582.47  -0.60  0.39
4583.53  -0.38  0.39
4584.58  -0.27  0.39
4585.64  -0.26  0.40
4586.70  -0.18  0.39
4587.75  0.07   0.40
4588.81  0.24   0.40
4589.87  0.25   0.41
4590.92  0.21   0.40
4591.98  0.11   0.39
4593.04  0.18   0.39
4594.10  0.31   0.40
4595.15  0.08   0.40
4596.21  -0.28  0.38
4597.27  -0.16  0.39
4598.33  0.07   0.39
4599.39  0.04   0.39
4600.45  -0.03  0.38
4601.51  -0.08  0.38
4602.57  -0.09  0.38
4603.63  0.04   0.39
4604.69  0.21   0.40
4605.75  0.23   0.39
4606.81  0.10   0.40
4607.87  -0.12  0.38
4608.93  -0.10  0.39
4609.99  0.22   0.39
4611.05  0.50   0.40
4612.11  0.57   0.40
4613.18  0.47   0.39
4614.24  0.31   0.38
4615.30  0.08   0.39
4616.36  -0.23  0.38
4617.43  -0.32  0.38
4618.49  -0.08  0.38
4619.55  0.23   0.39
4620.62  0.31   0.39
4621.68  0.20   0.38
4622.75  0.16   0.38
4623.81  0.24   0.39
4624.87  0.27   0.39
4625.94  0.13   0.39
4627.01  -0.09  0.38
4628.07  -0.18  0.38
4629.14  0.02   0.38
4630.20  0.36   0.39
4631.27  0.50   0.39
4632.34  0.44   0.39
4633.40  0.34   0.39
4634.47  0.16   0.38
4635.54  -0.06  0.38
4636.60  -0.21  0.38
4637.67  -0.21  0.38
4638.74  -0.01  0.38
4639.81  0.24   0.38
4640.88  0.25   0.38
4641.95  -0.03  0.38
4643.01  -0.39  0.37
4644.08  -0.58  0.37
4645.15  -0.56  0.36
4646.22  -0.28  0.37
4647.29  -0.01  0.37
4648.36  0.11   0.37
4649.43  0.04   0.37
4650.50  -0.17  0.36
4651.57  -0.08  0.37
4652.65  0.07   0.38
4653.72  -0.18  0.37
4654.79  -0.34  0.37
4655.86  -0.02  0.37
4656.93  0.50   0.39
4658.01  0.70   0.40
4659.08  0.46   0.40
4660.15  0.11   0.39
4661.22  0.04   0.39
4662.30  0.15   0.40
4663.37  0.08   0.39
4664.45  -0.21  0.39
4665.52  -0.27  0.38
4666.59  0.10   0.39
4667.67  0.41   0.40
4668.74  0.25   0.40
4669.82  -0.08  0.39
4670.89  -0.13  0.40
4671.97  -0.03  0.40
4673.05  -0.01  0.40
4674.12  -0.04  0.40
4675.20  -0.11  0.40
4676.27  -0.18  0.40
4677.35  -0.38  0.39
4678.43  -0.50  0.38
4679.51  -0.32  0.38
4680.58  -0.07  0.39
4681.66  0.07   0.39
4682.74  0.01   0.39
4683.82  -0.17  0.38
4684.90  -0.27  0.38
4685.98  -0.18  0.39
4687.05  -0.04  0.38
4688.13  0.12   0.38
4689.21  0.52   0.38
4690.29  0.91   0.40
4691.37  0.77   0.39
4692.45  0.34   0.38
4693.53  0.12   0.38
4694.62  0.07   0.38
4695.70  0.14   0.38
4696.78  0.25   0.39
4697.86  0.37   0.38
4698.94  0.42   0.38
4700.02  0.26   0.38
4701.11  0.06   0.37
4702.19  0.06   0.38
4703.27  0.08   0.38
4704.35  0.15   0.37
4705.44  0.29   0.39
4706.52  0.14   0.38
4707.60  -0.11  0.38
4708.69  -0.33  0.38
4709.77  -0.45  0.37
4710.86  -0.35  0.38
4711.94  -0.09  0.38
4713.03  0.19   0.38
4714.11  0.37   0.38
4715.20  0.43   0.38
4716.28  0.45   0.38
4717.37  0.55   0.39
4718.46  0.59   0.39
4719.54  0.45   0.39
4720.63  0.28   0.38
4721.72  0.16   0.38
4722.80  0.09   0.38
4723.89  0.07   0.38
4724.98  0.21   0.38
4726.07  0.23   0.39
4727.16  0.00   0.37
4728.25  -0.09  0.37
4729.33  0.02   0.38
4730.42  0.19   0.39
4731.51  0.32   0.39
4732.60  0.44   0.38
4733.69  0.48   0.39
4734.78  0.20   0.38
4735.87  -0.10  0.37
4736.96  0.06   0.38
4738.05  0.41   0.39
4739.15  0.57   0.40
4740.24  0.47   0.40
4741.33  0.30   0.39
4742.42  0.24   0.39
4743.51  0.26   0.40
4744.60  0.27   0.40
4745.70  0.33   0.40
4746.79  0.51   0.39
4747.88  0.66   0.39
4748.98  0.63   0.38
4750.07  0.37   0.38
4751.16  -0.07  0.37
4752.26  -0.22  0.36
4753.35  0.10   0.38
4754.45  0.50   0.38
4755.54  0.61   0.39
4756.64  0.53   0.37
4757.73  0.57   0.37
4758.83  0.74   0.37
4759.92  0.79   0.38
4761.02  0.58   0.38
4762.12  0.26   0.36
4763.21  0.20   0.36
4764.31  0.32   0.37
4765.41  0.18   0.37
4766.50  -0.07  0.35
4767.60  0.04   0.35
4768.70  0.40   0.37
4769.80  0.62   0.36
4770.90  0.75   0.37
4772.00  0.75   0.37
4773.09  0.64   0.37
4774.19  0.67   0.37
4775.29  0.61   0.37
4776.39  0.44   0.37
4777.49  0.22   0.37
4778.59  -0.05  0.37
4779.69  -0.20  0.36
4780.79  -0.17  0.36
4781.89  -0.01  0.36
4783.00  0.11   0.36
4784.10  0.10   0.36
4785.20  0.20   0.36
4786.30  0.24   0.37
4787.40  0.19   0.36
4788.51  0.22   0.37
4789.61  0.30   0.36
4790.71  0.66   0.37
4791.81  0.99   0.38
4792.92  0.82   0.37
4794.02  0.41   0.37
4795.13  -0.12  0.36
4796.23  -0.28  0.35
4797.33  0.03   0.37
4798.44  0.10   0.37
4799.54  0.04   0.36
4800.65  0.33   0.37
4801.75  0.64   0.37
4802.86  0.62   0.37
4803.97  0.57   0.36
4805.07  0.63   0.37
4806.18  0.59   0.37
4807.29  0.46   0.36
4808.39  0.30   0.37
4809.50  0.09   0.36
4810.61  -0.02  0.36
4811.72  -0.02  0.36
4812.82  -0.01  0.37
4813.93  0.04   0.36
4815.04  0.22   0.37
4816.15  0.49   0.38
4817.26  0.62   0.38
4818.37  0.61   0.39
4819.48  0.56   0.39
4820.59  0.49   0.39
4821.70  0.48   0.39
4822.81  0.47   0.39
4823.92  0.29   0.38
4825.03  0.21   0.37
4826.14  0.44   0.38
4827.25  0.69   0.38
4828.36  0.79   0.39
4829.48  0.75   0.39
4830.59  0.70   0.38
4831.70  0.60   0.38
4832.81  0.36   0.38
4833.93  0.15   0.38
4835.04  0.09   0.38
4836.15  0.06   0.38
4837.27  0.03   0.37
4838.38  0.17   0.37
4839.49  0.27   0.38
4840.61  0.30   0.38
4841.72  0.34   0.38
4842.84  0.33   0.38
4843.95  0.44   0.37
4845.07  0.52   0.38
4846.18  0.39   0.37
4847.30  0.22   0.37
4848.42  0.23   0.37
4849.53  0.35   0.37
4850.65  0.44   0.37
4851.77  0.45   0.37
4852.88  0.52   0.37
4854.00  0.64   0.38
4855.12  0.66   0.37
4856.24  0.62   0.36
4857.36  0.57   0.37
4858.48  0.41   0.36
4859.59  0.29   0.36
4860.71  0.30   0.37
4861.83  0.44   0.38
4862.95  0.50   0.39
4864.07  0.32   0.36
4865.19  0.25   0.36
4866.31  0.22   0.36
4867.43  0.17   0.35
4868.55  0.35   0.36
4869.68  0.43   0.36
4870.80  0.26   0.36
4871.92  0.03   0.35
4873.04  -0.11  0.35
4874.16  0.01   0.35
4875.28  0.28   0.36
4876.41  0.36   0.36
4877.53  0.31   0.36
4878.65  0.39   0.36
4879.78  0.34   0.37
4880.90  0.11   0.37
4882.02  0.11   0.36
4883.15  0.22   0.37
4884.27  0.24   0.36
4885.40  0.32   0.37
4886.52  0.36   0.37
4887.65  0.20   0.36
4888.77  -0.02  0.36
4889.90  -0.21  0.35
4891.03  -0.12  0.35
4892.15  0.12   0.36
4893.28  0.08   0.36
4894.41  -0.03  0.35
4895.53  -0.02  0.36
4896.66  -0.03  0.36
4897.79  -0.06  0.36
4898.92  -0.09  0.35
4900.04  -0.14  0.36
4901.17  -0.27  0.34
4902.30  -0.31  0.34
4903.43  -0.01  0.35
4904.56  0.42   0.35
4905.69  0.67   0.37
4906.82  0.72   0.37
4907.95  0.56   0.36
4909.08  0.29   0.35
4910.21  0.15   0.35
4911.34  0.15   0.35
4912.47  0.01   0.35
4913.60  -0.14  0.34
4914.73  -0.04  0.35
4915.87  0.13   0.35
4917.00  0.29   0.35
4918.13  0.44   0.35
4919.26  0.51   0.36
4920.40  0.46   0.35
4921.53  0.20   0.34
4922.66  0.02   0.34
4923.80  0.02   0.35
4924.93  -0.05  0.35
4926.06  -0.06  0.34
4927.20  0.10   0.35
4928.33  0.15   0.34
4929.47  0.06   0.35
4930.60  0.14   0.35
4931.74  0.42   0.35
4932.87  0.66   0.36
4934.01  0.35   0.36
4935.15  -0.23  0.34
4936.28  -0.25  0.35
4937.42  0.04   0.36
4938.56  0.18   0.35
4939.69  0.27   0.36
4940.83  0.25   0.35
4941.97  0.17   0.35
4943.11  0.13   0.35
4944.24  0.07   0.35
4945.38  -0.01  0.35
4946.52  -0.11  0.34
4947.66  -0.26  0.34
4948.80  -0.21  0.34
4949.94  0.02   0.35
4951.08  0.25   0.35
4952.22  0.51   0.36
4953.36  0.54   0.36
4954.50  0.38   0.36
4955.64  0.33   0.36
4956.78  0.24   0.35
4957.93  0.07   0.35
4959.07  -0.03  0.35
4960.21  -0.14  0.35
4961.35  -0.15  0.35
4962.49  0.17   0.35
4963.64  0.58   0.36
4964.78  0.69   0.37
4965.92  0.49   0.36
4967.07  0.24   0.36
4968.21  0.14   0.36
4969.36  0.14   0.36
4970.50  0.06   0.36
4971.64  -0.09  0.36
4972.79  -0.20  0.36
4973.93  -0.22  0.36
4975.08  -0.10  0.37
4976.23  0.13   0.37
4977.37  0.38   0.38
4978.52  0.49   0.38
4979.66  0.53   0.38
4980.81  0.64   0.39
4981.96  0.56   0.39
4983.10  0.32   0.38
4984.25  0.32   0.39
4985.40  0.30   0.39
4986.55  -0.01  0.38
4987.70  -0.23  0.37
4988.84  -0.07  0.38
4989.99  0.01   0.37
4991.14  -0.12  0.37
4992.29  -0.34  0.37
4993.44  -0.52  0.36
4994.59  -0.52  0.36
4995.74  -0.53  0.36
4996.89  -0.67  0.35
4998.04  -0.66  0.37
4999.19  -0.56  0.39
5000.35  -0.52  0.39
5001.50  -0.18  0.35
5002.65  0.52   0.35
5003.80  1.01   0.34
5004.95  1.10   0.34
5006.11  0.85   0.34
5007.26  0.38   0.34
5008.41  0.00   0.33
5009.56  -0.09  0.34
5010.72  0.00   0.33
5011.87  0.34   0.34
5013.03  0.65   0.35
5014.18  0.62   0.34
5015.34  0.45   0.34
5016.49  0.35   0.34
5017.65  0.38   0.34
5018.80  0.46   0.35
5019.96  0.45   0.35
5021.11  0.38   0.35
5022.27  0.28   0.35
5023.43  0.10   0.34
5024.58  -0.08  0.34
5025.74  -0.14  0.34
5026.90  -0.09  0.33
5028.05  -0.02  0.33
5029.21  0.05   0.34
5030.37  0.07   0.33
5031.53  0.21   0.34
5032.69  0.45   0.35
5033.85  0.64   0.34
5035.01  0.80   0.35
5036.17  0.73   0.34
5037.33  0.37   0.34
5038.49  0.05   0.34
5039.65  -0.02  0.34
5040.81  0.20   0.34
5041.97  0.52   0.34
5043.13  0.59   0.34
5044.29  0.33   0.34
5045.45  0.11   0.33
5046.61  0.18   0.34
5047.77  0.26   0.34
5048.94  0.23   0.34
5050.10  0.27   0.34
5051.26  0.50   0.34
5052.43  0.69   0.35
5053.59  0.54   0.34
5054.75  0.23   0.34
5055.92  0.12   0.34
5057.08  0.10   0.34
5058.25  0.04   0.34
5059.41  0.09   0.34
5060.58  0.07   0.34
5061.74  -0.01  0.33
5062.91  0.15   0.34
5064.07  0.50   0.35
5065.24  0.76   0.35
5066.41  0.78   0.35
5067.57  0.64   0.35
5068.74  0.53   0.34
5069.91  0.47   0.35
5071.07  0.34   0.35
5072.24  0.10   0.35
5073.41  -0.23  0.34
5074.58  -0.25  0.33
5075.75  0.10   0.34
5076.92  0.16   0.34
5078.09  -0.13  0.33
5079.25  -0.19  0.33
5080.42  0.11   0.34
5081.59  0.36   0.35
5082.76  0.41   0.36
5083.94  0.46   0.37
5085.11  0.63   0.37
5086.28  0.75   0.38
5087.45  0.62   0.38
5088.62  0.55   0.37
5089.79  0.72   0.37
5090.96  0.71   0.36
5092.14  0.39   0.35
5093.31  0.22   0.35
5094.48  0.19   0.35
5095.65  0.03   0.34
5096.83  -0.16  0.34
5098.00  -0.39  0.34
5099.18  -0.52  0.34
5100.35  -0.19  0.35
5101.52  0.41   0.35
5102.70  0.76   0.35
5103.87  0.63   0.35
5105.05  0.19   0.33
5106.23  -0.11  0.33
5107.40  -0.23  0.33
5108.58  -0.25  0.33
5109.75  -0.15  0.33
5110.93  0.01   0.33
5112.11  0.27   0.34
5113.28  0.46   0.34
5114.46  0.51   0.34
5115.64  0.52   0.34
5116.82  0.38   0.34
5118.00  0.21   0.34
5119.18  0.18   0.34
5120.35  0.10   0.34
5121.53  -0.08  0.33
5122.71  -0.25  0.33
5123.89  -0.44  0.33
5125.07  -0.54  0.31
5126.25  -0.22  0.32
5127.43  0.35   0.33
5128.61  0.61   0.33
5129.79  0.53   0.32
5130.98  0.54   0.33
5132.16  0.57   0.34
5133.34  0.52   0.34
5134.52  0.54   0.34
5135.70  0.61   0.35
5136.89  0.57   0.34
5138.07  0.49   0.34
5139.25  0.45   0.34
5140.44  0.37   0.34
5141.62  0.21   0.34
5142.80  0.02   0.34
5143.99  -0.21  0.34
5145.17  -0.39  0.32
5146.36  -0.18  0.33
5147.54  0.18   0.34
5148.73  0.51   0.36
5149.91  0.84   0.37
5151.10  0.94   0.36
5152.29  0.78   0.35
5153.47  0.55   0.35
5154.66  0.38   0.35
5155.85  0.24   0.35
5157.03  0.13   0.34
5158.22  0.16   0.34
5159.41  0.25   0.34
5160.60  0.39   0.33
5161.79  0.54   0.34
5162.97  0.43   0.33
5164.16  0.31   0.33
5165.35  0.50   0.34
5166.54  0.71   0.33
5167.73  0.90   0.33
5168.92  0.99   0.34
5170.11  0.73   0.33
5171.30  0.40   0.33
5172.49  0.43   0.32
5173.69  0.66   0.33
5174.88  0.59   0.33
5176.07  0.42   0.33
5177.26  0.27   0.34
5178.45  -0.05  0.33
5179.65  -0.24  0.32
5180.84  -0.06  0.33
5182.03  0.07   0.33
5183.22  0.01   0.32
5184.42  0.06   0.32
5185.61  0.18   0.32
5186.81  0.35   0.32
5188.00  0.75   0.34
5189.20  1.00   0.36
5190.39  0.78   0.35
5191.59  0.39   0.34
5192.78  0.18   0.34
5193.98  0.06   0.33
5195.17  0.03   0.33
5196.37  0.15   0.33
5197.57  0.22   0.34
5198.76  0.38   0.36
5199.96  0.68   0.38
5201.16  0.71   0.37
5202.35  0.53   0.36
5203.55  0.44   0.36
5204.75  0.30   0.35
5205.95  0.09   0.34
5207.15  -0.07  0.33
5208.35  -0.21  0.33
5209.55  -0.23  0.33
5210.75  -0.11  0.33
5211.95  0.10   0.34
5213.15  0.27   0.34
5214.35  0.36   0.33
5215.55  0.49   0.33
5216.75  0.58   0.33
5217.95  0.52   0.34
5219.15  0.44   0.34
5220.35  0.33   0.34
5221.56  0.00   0.34
5222.76  -0.34  0.33
5223.96  -0.42  0.34
5225.16  -0.38  0.34
5226.37  -0.28  0.34
5227.57  -0.18  0.32
5228.78  -0.15  0.32
5229.98  -0.12  0.32
5231.18  -0.07  0.32
5232.39  -0.06  0.33
5233.59  -0.04  0.33
5234.80  0.11   0.33
5236.00  0.26   0.33
5237.21  0.38   0.33
5238.42  0.48   0.35
5239.62  0.36   0.36
5240.83  0.18   0.35
5242.04  0.04   0.34
5243.24  -0.18  0.33
5244.45  -0.33  0.32
5245.66  -0.23  0.32
5246.87  -0.07  0.32
5248.07  0.04   0.32
5249.28  0.07   0.33
5250.49  0.04   0.33
5251.70  0.13   0.33
5252.91  0.27   0.33
5254.12  0.32   0.33
5255.33  0.39   0.34
5256.54  0.43   0.35
5257.75  0.50   0.36
5258.96  0.65   0.36
5260.17  0.55   0.34
5261.38  0.34   0.33
5262.60  0.24   0.33
5263.81  0.16   0.33
5265.02  -0.04  0.32
5266.23  -0.39  0.32
5267.44  -0.52  0.31
5268.66  -0.35  0.32
5269.87  -0.22  0.32
5271.09  -0.14  0.32
5272.30  -0.07  0.32
5273.51  -0.12  0.32
5274.73  -0.18  0.32
5275.94  -0.05  0.33
5277.16  0.25   0.34
5278.37  0.51   0.35
5279.59  0.58   0.34
5280.80  0.54   0.33
5282.02  0.42   0.33
5283.24  0.24   0.33
5284.45  0.08   0.33
5285.67  0.01   0.33
5286.89  0.05   0.33
5288.10  0.09   0.33
5289.32  0.15   0.33
5290.54  0.20   0.33
5291.76  0.32   0.33
5292.98  0.46   0.33
5294.20  0.48   0.33
5295.41  0.56   0.34
5296.63  0.66   0.34
5297.85  0.47   0.34
5299.07  0.08   0.33
5300.29  0.15   0.33
5301.52  0.64   0.35
5302.74  0.97   0.34
5303.96  1.00   0.34
5305.18  0.72   0.34
5306.40  0.15   0.33
5307.62  -0.22  0.33
5308.84  -0.19  0.34
5310.07  -0.16  0.33
5311.29  -0.18  0.33
5312.51  -0.22  0.34
5313.74  -0.45  0.33
5314.96  -0.59  0.33
5316.18  -0.32  0.32
5317.41  0.15   0.32
5318.63  0.30   0.33
5319.86  0.11   0.31
5321.08  0.23   0.32
5322.31  0.77   0.33
5323.53  1.11   0.34
5324.76  1.09   0.34
5325.99  0.98   0.34
5327.21  0.73   0.34
5328.44  0.31   0.33
5329.67  -0.09  0.33
5330.89  -0.45  0.33
5332.12  -0.43  0.33
5333.35  0.21   0.34
5334.58  0.87   0.34
5335.81  1.15   0.34
5337.03  1.13   0.34
5338.26  0.85   0.34
5339.49  0.34   0.33
5340.72  -0.12  0.33
5341.95  -0.22  0.33
5343.18  0.12   0.33
5344.41  0.70   0.35
5345.64  0.98   0.34
5346.87  0.76   0.34
5348.11  0.43   0.33
5349.34  0.47   0.34
5350.57  0.59   0.36
5351.80  0.42   0.36
5353.03  0.15   0.34
5354.27  -0.05  0.34
5355.50  -0.12  0.33
5356.73  -0.02  0.34
5357.97  0.30   0.34
5359.20  0.61   0.34
5360.43  0.71   0.33
5361.67  0.58   0.33
5362.90  0.35   0.33
5364.14  0.20   0.33
5365.37  0.15   0.33
5366.61  0.26   0.33
5367.85  0.42   0.34
5369.08  0.36   0.34
5370.32  0.08   0.33
5371.55  -0.25  0.33
5372.79  -0.53  0.32
5374.03  -0.70  0.32
5375.27  -0.65  0.33
5376.50  -0.34  0.33
5377.74  0.01   0.34
5378.98  0.28   0.33
5380.22  0.49   0.33
5381.46  0.58   0.34
5382.70  0.38   0.33
5383.94  0.09   0.33
5385.18  0.12   0.32
5386.42  0.38   0.33
5387.66  0.46   0.34
5388.90  0.32   0.33
5390.14  0.23   0.33
5391.38  0.25   0.34
5392.62  0.17   0.34
5393.86  -0.08  0.34
5395.11  -0.38  0.33
5396.35  -0.56  0.32
5397.59  -0.62  0.32
5398.83  -0.62  0.31
5400.08  -0.38  0.32
5401.32  0.10   0.32
5402.57  0.41   0.34
5403.81  0.46   0.33
5405.05  0.46   0.34
5406.30  0.43   0.33
5407.54  0.33   0.33
5408.79  0.18   0.33
5410.03  -0.09  0.33
5411.28  -0.30  0.33
5412.53  -0.41  0.33
5413.77  -0.53  0.33
5415.02  -0.48  0.33
5416.27  -0.10  0.33
5417.51  0.24   0.34
5418.76  0.21   0.34
5420.01  0.15   0.33
5421.26  0.36   0.34
5422.51  0.60   0.34
5423.75  0.76   0.34
5425.00  0.83   0.34
5426.25  0.76   0.34
5427.50  0.68   0.34
5428.75  0.68   0.35
5430.00  0.51   0.34
5431.25  0.21   0.34
5432.50  0.04   0.34
5433.75  0.01   0.34
5435.01  0.10   0.34
5436.26  0.39   0.34
5437.51  0.73   0.36
5438.76  0.78   0.35
5440.01  0.76   0.35
5441.27  0.84   0.36
5442.52  0.72   0.36
5443.77  0.50   0.35
5445.03  0.38   0.36
5446.28  0.19   0.35
5447.53  -0.05  0.35
5448.79  -0.25  0.34
5450.04  -0.05  0.34
5451.30  0.50   0.35
5452.55  0.71   0.36
5453.81  0.52   0.34
5455.07  0.35   0.34
5456.32  0.24   0.34
5457.58  0.13   0.34
5458.84  0.14   0.37
5460.09  0.41   0.43
5461.35  0.86   0.53
5462.61  1.12   0.56
5463.87  0.84   0.49
5465.12  0.26   0.40
5466.38  -0.05  0.36
5467.64  -0.11  0.35
5468.90  -0.05  0.35
5470.16  0.17   0.34
5471.42  0.39   0.35
5472.68  0.52   0.35
5473.94  0.56   0.35
5475.20  0.34   0.35
5476.46  -0.12  0.33
5477.72  -0.43  0.33
5478.98  -0.39  0.33
5480.24  -0.06  0.34
5481.51  0.30   0.34
5482.77  0.63   0.34
5484.03  0.93   0.36
5485.30  0.91   0.36
5486.56  0.62   0.35
5487.82  0.36   0.34
5489.09  0.30   0.34
5490.35  0.44   0.34
5491.61  0.56   0.35
5492.88  0.55   0.34
5494.14  0.55   0.34
5495.41  0.52   0.34
5496.67  0.45   0.34
5497.94  0.41   0.34
5499.21  0.37   0.34
5500.47  0.39   0.35
5501.74  0.48   0.34
5503.01  0.59   0.35
5504.27  0.69   0.34
5505.54  0.80   0.35
5506.81  0.84   0.35
5508.08  0.81   0.36
5509.35  0.76   0.36
5510.61  0.71   0.36
5511.88  0.63   0.37
5513.15  0.38   0.36
5514.42  0.16   0.36
5515.69  0.18   0.37
5516.96  0.12   0.37
5518.23  -0.02  0.36
5519.50  -0.11  0.35
5520.77  -0.17  0.35
5522.05  -0.17  0.35
5523.32  -0.11  0.35
5524.59  -0.04  0.34
5525.86  0.13   0.34
5527.13  0.44   0.34
5528.41  0.66   0.35
5529.68  0.65   0.34
5530.95  0.64   0.34
5532.23  0.65   0.35
5533.50  0.41   0.35
5534.78  0.06   0.33
5536.05  0.05   0.34
5537.32  0.20   0.34
5538.60  0.27   0.34
5539.88  0.23   0.34
5541.15  0.13   0.34
5542.43  0.12   0.35
5543.70  0.13   0.36
5544.98  0.00   0.36
5546.26  0.04   0.36
5547.53  0.18   0.36
5548.81  0.20   0.35
5550.09  0.26   0.35
5551.37  0.35   0.35
5552.65  0.46   0.35
5553.92  0.66   0.34
5555.20  0.79   0.35
5556.48  0.68   0.34
5557.76  0.54   0.35
5559.04  0.37   0.34
5560.32  0.13   0.34
5561.60  0.05   0.33
5562.88  0.28   0.35
5564.17  0.53   0.37
5565.45  0.65   0.38
5566.73  0.67   0.37
5568.01  0.66   0.35
5569.29  0.87   0.35
5570.57  1.20   0.37
5571.86  1.26   0.36
5573.14  0.64   0.38
5574.42  -1.23  0.44
5575.71  -2.20  0.71
5576.99  -0.09  1.77
5578.28  3.06   2.99
5579.56  4.45   3.12
5580.85  3.09   1.70
5582.13  0.71   0.68
5583.42  -0.15  0.41
5584.70  0.33   0.40
5585.99  0.68   0.35
5587.27  0.80   0.35
5588.56  0.83   0.36
5589.85  0.72   0.37
5591.14  0.58   0.37
5592.42  0.59   0.36
5593.71  0.72   0.35
5595.00  0.87   0.35
5596.29  0.98   0.35
5597.58  0.85   0.36
5598.87  0.37   0.36
5600.15  -0.01  0.35
5601.44  -0.04  0.34
5602.73  0.06   0.34
5604.02  0.34   0.35
5605.31  0.80   0.37
5606.61  0.99   0.39
5607.90  0.68   0.37
5609.19  0.25   0.35
5610.48  0.12   0.35
5611.77  0.25   0.34
5613.06  0.45   0.34
5614.36  0.46   0.34
5615.65  0.32   0.34
5616.94  0.18   0.34
5618.24  0.11   0.35
5619.53  0.15   0.35
5620.82  0.25   0.34
5622.12  0.58   0.34
5623.41  0.98   0.37
5624.71  1.00   0.37
5626.00  0.78   0.37
5627.30  0.58   0.35
5628.60  0.51   0.35
5629.89  0.45   0.34
5631.19  0.36   0.34
5632.48  0.36   0.34
5633.78  0.41   0.34
5635.08  0.49   0.34
5636.38  0.51   0.34
5637.67  0.47   0.34
5638.97  0.58   0.34
5640.27  0.64   0.36
5641.57  0.52   0.35
5642.87  0.42   0.35
5644.17  0.30   0.35
5645.47  0.22   0.35
5646.77  0.39   0.37
5648.07  0.58   0.36
5649.37  0.55   0.35
5650.67  0.48   0.35
5651.97  0.50   0.34
5653.27  0.59   0.35
5654.58  0.67   0.35
5655.88  0.67   0.35
5657.18  0.60   0.35
5658.48  0.44   0.34
5659.79  0.39   0.35
5661.09  0.43   0.35
5662.39  0.41   0.35
5663.70  0.38   0.35
5665.00  0.43   0.36
5666.31  0.45   0.36
5667.61  0.49   0.36
5668.92  0.48   0.37
5670.22  0.45   0.37
5671.53  0.69   0.39
5672.83  1.06   0.40
5674.14  1.21   0.40
5675.45  1.09   0.39
5676.75  0.90   0.39
5678.06  0.64   0.38
5679.37  0.45   0.38
5680.68  0.46   0.39
5681.98  0.51   0.40
5683.29  0.32   0.43
5684.60  0.01   0.46
5685.91  0.03   0.47
5687.22  0.43   0.48
5688.53  0.92   0.49
5689.84  1.00   0.50
5691.15  0.76   0.50
5692.46  0.68   0.48
5693.77  0.66   0.46
5695.08  0.62   0.43
5696.39  0.71   0.41
5697.71  0.81   0.40
5699.02  0.83   0.40
5700.33  0.66   0.40
5701.64  0.46   0.39
5702.96  0.30   0.39
5704.27  0.23   0.37
5705.58  0.48   0.37
5706.90  0.79   0.38
5708.21  0.80   0.37
5709.53  0.67   0.37
5710.84  0.56   0.38
5712.16  0.41   0.37
5713.47  0.31   0.38
5714.79  0.29   0.38
5716.10  0.26   0.37
5717.42  0.33   0.36
5718.74  0.52   0.37
5720.05  0.51   0.38
5721.37  0.30   0.37
5722.69  0.11   0.37
5724.01  0.04   0.36
5725.32  0.24   0.37
5726.64  0.59   0.38
5727.96  0.66   0.37
5729.28  0.38   0.37
5730.60  0.14   0.35
5731.92  0.14   0.36
5733.24  0.24   0.36
5734.56  0.47   0.36
5735.88  0.67   0.37
5737.20  0.60   0.36
5738.52  0.49   0.36
5739.84  0.38   0.36
5741.16  0.32   0.36
5742.49  0.34   0.36
5743.81  0.24   0.36
5745.13  -0.01  0.36
5746.45  -0.22  0.35
5747.78  -0.23  0.35
5749.10  -0.06  0.35
5750.43  0.10   0.35
5751.75  0.16   0.35
5753.07  0.24   0.35
5754.40  0.43   0.36
5755.72  0.63   0.36
5757.05  0.59   0.37
5758.38  0.34   0.36
5759.70  0.13   0.36
5761.03  0.08   0.36
5762.35  0.04   0.36
5763.68  0.19   0.36
5765.01  0.54   0.37
5766.34  0.83   0.38
5767.66  0.94   0.41
5768.99  0.73   0.41
5770.32  0.41   0.44
5771.65  0.25   0.44
5772.98  0.22   0.43
5774.31  0.06   0.39
5775.64  -0.12  0.37
5776.97  0.08   0.36
5778.30  0.56   0.38
5779.63  0.80   0.37
5780.96  0.72   0.37
5782.29  0.49   0.36
5783.62  0.33   0.37
5784.96  0.36   0.37
5786.29  0.40   0.37
5787.62  0.36   0.38
5788.95  0.31   0.40
5790.29  0.33   0.43
5791.62  0.35   0.43
5792.95  0.32   0.43
5794.29  0.20   0.41
5795.62  -0.05  0.39
5796.96  -0.22  0.37
5798.29  -0.01  0.38
5799.63  0.27   0.38
5800.96  0.30   0.38
5802.30  0.26   0.37
5803.63  0.35   0.38
5804.97  0.39   0.38
5806.31  0.29   0.38
5807.64  0.20   0.38
5808.98  0.18   0.37
5810.32  0.26   0.38
5811.66  0.32   0.38
5813.00  0.26   0.38
5814.33  0.22   0.38
5815.67  0.11   0.38
5817.01  -0.12  0.37
5818.35  -0.13  0.37
5819.69  0.06   0.38
5821.03  0.32   0.38
5822.37  0.55   0.38
5823.71  0.66   0.38
5825.05  0.74   0.38
5826.40  0.85   0.39
5827.74  0.87   0.39
5829.08  0.70   0.39
5830.42  0.51   0.39
5831.76  0.39   0.39
5833.11  0.38   0.39
5834.45  0.45   0.40
5835.79  0.51   0.40
5837.14  0.49   0.40
5838.48  0.43   0.40
5839.83  0.36   0.39
5841.17  0.27   0.40
5842.52  0.20   0.40
5843.86  0.14   0.40
5845.21  0.18   0.40
5846.55  0.34   0.41
5847.90  0.49   0.40
5849.25  0.58   0.41
5850.59  0.61   0.41
5851.94  0.68   0.41
5853.29  0.69   0.41
5854.64  0.57   0.41
5855.99  0.49   0.41
5857.33  0.45   0.41
5858.68  0.37   0.41
5860.03  0.33   0.41
5861.38  0.37   0.42
5862.73  0.54   0.42
5864.08  0.48   0.43
5865.43  0.08   0.44
5866.78  0.07   0.48
5868.13  0.44   0.51
5869.48  0.41   0.51
5870.84  0.05   0.47
5872.19  0.06   0.44
5873.54  0.28   0.44
5874.89  0.40   0.44
5876.25  0.47   0.43
5877.60  0.54   0.43
5878.95  0.65   0.41
5880.31  0.77   0.42
5881.66  0.71   0.41
5883.02  0.56   0.41
5884.37  0.33   0.42
5885.73  -0.10  0.41
5887.08  -0.29  0.43
5888.44  -0.10  0.54
5889.79  0.25   0.72
5891.15  0.34   0.91
5892.51  -0.10  0.76
5893.86  -0.52  0.60
5895.22  -0.02  0.61
5896.58  0.99   0.72
5897.94  1.27   0.77
5899.29  0.61   0.59
5900.65  -0.09  0.47
5902.01  -0.18  0.41
5903.37  0.08   0.42
5904.73  0.29   0.43
5906.09  0.32   0.43
5907.45  0.32   0.44
5908.81  0.26   0.44
5910.17  0.13   0.43
5911.53  0.02   0.42
5912.89  -0.12  0.42
5914.25  -0.29  0.43
5915.62  -0.26  0.48
5916.98  -0.07  0.51
5918.34  0.06   0.48
5919.70  0.13   0.44
5921.07  0.12   0.43
5922.43  0.04   0.43
5923.79  0.13   0.44
5925.16  0.27   0.47
5926.52  0.21   0.47
5927.89  0.17   0.46
5929.25  0.22   0.44
5930.62  0.22   0.44
5931.98  0.33   0.46
5933.35  0.68   0.52
5934.72  0.81   0.54
5936.08  0.47   0.50
5937.45  0.01   0.45
5938.82  -0.20  0.44
5940.19  -0.38  0.44
5941.55  -0.49  0.43
5942.92  -0.15  0.44
5944.29  0.18   0.45
5945.66  0.10   0.46
5947.03  -0.02  0.46
5948.40  0.17   0.46
5949.77  0.43   0.45
5951.14  0.37   0.45
5952.51  0.07   0.47
5953.88  -0.04  0.51
5955.25  0.01   0.53
5956.62  -0.08  0.49
5957.99  -0.03  0.45
5959.37  0.20   0.45
5960.74  0.08   0.44
5962.11  -0.12  0.43
5963.48  -0.04  0.44
5964.86  -0.03  0.44
5966.23  -0.14  0.44
5967.60  -0.13  0.44
5968.98  -0.20  0.44
5970.35  -0.24  0.45
5971.73  -0.17  0.46
5973.10  -0.17  0.46
5974.48  -0.04  0.44
5975.85  0.28   0.46
5977.23  0.46   0.47
5978.61  0.41   0.48
5979.98  0.22   0.48
5981.36  -0.05  0.44
5982.74  -0.13  0.43
5984.12  0.04   0.44
5985.49  0.09   0.43
5986.87  0.13   0.44
5988.25  0.16   0.43
5989.63  0.08   0.44
5991.01  0.03   0.44
5992.39  0.27   0.45
5993.77  0.46   0.46
5995.15  0.34   0.44
5996.53  0.28   0.45
5997.91  0.17   0.45
5999.29  -0.02  0.45
6000.67  0.08   0.44
6002.06  0.36   0.44
6003.44  0.47   0.44
6004.82  0.44   0.45
6006.20  0.60   0.46
6007.59  0.75   0.45
6008.97  0.54   0.43
6010.35  0.28   0.42
6011.74  0.32   0.42
6013.12  0.35   0.43
6014.51  0.27   0.42
6015.89  0.27   0.42
6017.28  0.23   0.43
6018.66  0.12   0.42
6020.05  0.17   0.42
6021.44  0.38   0.42
6022.82  0.57   0.42
6024.21  0.50   0.42
6025.60  0.25   0.42
6026.98  0.23   0.41
6028.37  0.43   0.43
6029.76  0.48   0.43
6031.15  0.41   0.43
6032.54  0.34   0.42
6033.93  0.42   0.43
6035.32  0.64   0.44
6036.71  0.66   0.43
6038.10  0.55   0.43
6039.49  0.58   0.42
6040.88  0.61   0.42
6042.27  0.60   0.42
6043.66  0.70   0.42
6045.05  0.78   0.43
6046.44  0.78   0.42
6047.84  0.91   0.42
6049.23  1.01   0.43
6050.62  0.78   0.42
6052.01  0.54   0.41
6053.41  0.45   0.42
6054.80  0.24   0.41
6056.20  -0.25  0.40
6057.59  -0.65  0.40
6058.99  -0.56  0.40
6060.38  0.03   0.40
6061.78  0.66   0.41
6063.17  0.80   0.41
6064.57  0.72   0.40
6065.97  0.90   0.41
6067.36  1.20   0.42
6068.76  1.37   0.42
6070.16  1.37   0.42
6071.56  1.21   0.41
6072.95  0.97   0.42
6074.35  0.69   0.42
6075.75  0.46   0.41
6077.15  0.45   0.41
6078.55  0.54   0.41
6079.95  0.66   0.41
6081.35  0.81   0.41
6082.75  0.85   0.41
6084.15  0.84   0.41
6085.55  0.83   0.41
6086.95  0.80   0.41
6088.36  0.75   0.42
6089.76  0.72   0.41
6091.16  0.65   0.41
6092.56  0.55   0.41
6093.97  0.51   0.41
6095.37  0.50   0.41
6096.77  0.56   0.41
6098.18  0.74   0.42
6099.58  0.75   0.42
6100.99  0.45   0.41
6102.39  0.19   0.41
6103.80  0.30   0.41
6105.20  0.59   0.42
6106.61  0.77   0.42
6108.01  0.62   0.42
6109.42  0.31   0.41
6110.83  0.36   0.42
6112.23  0.59   0.43
6113.64  0.74   0.43
6115.05  0.81   0.44
6116.46  0.58   0.43
6117.87  0.30   0.42
6119.28  0.33   0.42
6120.68  0.50   0.42
6122.09  0.52   0.41
6123.50  0.60   0.41
6124.91  0.76   0.41
6126.32  0.66   0.41
6127.74  0.39   0.40
6129.15  0.46   0.40
6130.56  0.76   0.41
6131.97  0.68   0.41
6133.38  0.38   0.40
6134.79  0.17   0.40
6136.21  -0.00  0.40
6137.62  -0.02  0.40
6139.03  0.29   0.42
6140.45  0.39   0.42
6141.86  0.22   0.42
6143.28  0.13   0.42
6144.69  0.17   0.43
6146.11  0.29   0.43
6147.52  0.36   0.43
6148.94  0.22   0.41
6150.35  0.00   0.40
6151.77  -0.01  0.41
6153.19  0.07   0.42
6154.60  0.11   0.42
6156.02  0.07   0.42
6157.44  0.09   0.43
6158.86  0.40   0.42
6160.27  0.62   0.42
6161.69  0.39   0.42
6163.11  0.12   0.43
6164.53  0.18   0.42
6165.95  0.35   0.41
6167.37  0.33   0.41
6168.79  0.34   0.40
6170.21  0.62   0.43
6171.63  0.84   0.45
6173.05  0.77   0.45
6174.47  0.56   0.42
6175.90  0.38   0.41
6177.32  0.33   0.41
6178.74  0.40   0.41
6180.16  0.53   0.41
6181.59  0.43   0.40
6183.01  0.12   0.39
6184.43  -0.04  0.40
6185.86  -0.08  0.40
6187.28  -0.19  0.40
6188.71  -0.24  0.39
6190.13  0.03   0.40
6191.56  0.25   0.40
6192.98  0.31   0.40
6194.41  0.41   0.41
6195.84  0.45   0.42
6197.26  0.29   0.41
6198.69  0.27   0.41
6200.12  0.47   0.41
6201.55  0.48   0.42
6202.97  0.40   0.43
6204.40  0.41   0.45
6205.83  0.41   0.43
6207.26  0.36   0.41
6208.69  0.31   0.40
6210.12  0.33   0.40
6211.55  0.41   0.41
6212.98  0.37   0.40
6214.41  0.30   0.40
6215.84  0.35   0.41
6217.27  0.42   0.40
6218.71  0.48   0.40
6220.14  0.37   0.40
6221.57  0.18   0.41
6223.00  0.07   0.43
6224.44  -0.06  0.43
6225.87  -0.17  0.40
6227.30  -0.26  0.39
6228.74  -0.30  0.38
6230.17  -0.15  0.39
6231.61  -0.03  0.39
6233.04  -0.04  0.40
6234.48  -0.08  0.44
6235.91  0.00   0.50
6237.35  0.31   0.53
6238.78  0.53   0.51
6240.22  0.51   0.47
6241.66  0.51   0.44
6243.10  0.53   0.45
6244.53  0.28   0.43
6245.97  -0.18  0.41
6247.41  -0.44  0.40
6248.85  -0.26  0.39
6250.29  0.08   0.40
6251.73  0.20   0.40
6253.17  0.07   0.39
6254.61  0.05   0.39
6256.05  0.12   0.40
6257.49  0.08   0.44
6258.93  0.10   0.52
6260.37  0.22   0.52
6261.81  0.32   0.46
6263.25  0.27   0.42
6264.70  0.16   0.42
6266.14  0.17   0.44
6267.58  0.17   0.44
6269.02  0.10   0.42
6270.47  0.04   0.41
6271.91  -0.03  0.40
6273.36  0.04   0.39
6274.80  0.16   0.40
6276.25  0.14   0.42
6277.69  0.22   0.42
6279.14  0.47   0.44
6280.58  0.54   0.42
6282.03  0.52   0.41
6283.48  0.51   0.40
6284.92  0.33   0.40
6286.37  0.15   0.45
6287.82  0.15   0.50
6289.27  0.04   0.55
6290.72  -0.26  0.52
6292.16  -0.45  0.45
6293.61  -0.53  0.42
6295.06  -0.60  0.41
6296.51  -0.46  0.41
6297.96  -0.27  0.43
6299.41  -0.35  0.58
6300.86  -0.39  0.81
6302.31  -0.12  0.88
6303.76  0.13   0.72
6305.22  0.15   0.51
6306.67  0.21   0.48
6308.12  0.22   0.50
6309.57  0.04   0.49
6311.03  -0.16  0.42
6312.48  -0.10  0.38
6313.93  0.21   0.36
6315.39  0.65   0.36
6316.84  0.82   0.36
6318.30  0.71   0.36
6319.75  0.71   0.36
6321.21  0.71   0.39
6322.66  0.48   0.40
6324.12  0.21   0.40
6325.57  0.04   0.37
6327.03  -0.22  0.35
6328.49  -0.46  0.38
6329.95  -0.32  0.43
6331.40  0.07   0.48
6332.86  0.28   0.45
6334.32  0.10   0.40
6335.78  -0.20  0.36
6337.24  -0.21  0.34
6338.70  0.10   0.34
6340.16  0.49   0.35
6341.62  0.76   0.35
6343.08  0.78   0.37
6344.54  0.58   0.36
6346.00  0.44   0.36
6347.46  0.45   0.37
6348.92  0.33   0.38
6350.38  0.26   0.38
6351.85  0.44   0.38
6353.31  0.57   0.35
6354.77  0.39   0.35
6356.24  0.06   0.38
6357.70  0.02   0.40
6359.16  0.14   0.39
6360.63  0.02   0.36
6362.09  0.01   0.37
6363.56  0.30   0.44
6365.02  0.59   0.52
6366.49  0.58   0.49
6367.96  0.29   0.41
6369.42  0.15   0.35
6370.89  0.45   0.34
6372.36  0.66   0.34
6373.82  0.53   0.34
6375.29  0.44   0.34
6376.76  0.44   0.34
6378.23  0.32   0.34
6379.70  0.26   0.35
6381.17  0.27   0.36
6382.63  0.29   0.35
6384.10  0.30   0.35
6385.57  0.11   0.37
6387.05  -0.06  0.38
6388.52  0.01   0.39
6389.99  0.02   0.37
6391.46  -0.06  0.35
6392.93  0.06   0.34
6394.40  0.35   0.35
6395.88  0.52   0.35
6397.35  0.54   0.33
6398.82  0.44   0.33
6400.30  0.33   0.33
6401.77  0.31   0.32
6403.24  0.40   0.35
6404.72  0.38   0.35
6406.19  0.24   0.34
6407.67  0.19   0.34
6409.14  0.17   0.34
6410.62  0.19   0.34
6412.10  0.27   0.34
6413.57  0.33   0.35
6415.05  0.36   0.36
6416.53  0.32   0.36
6418.00  0.17   0.35
6419.48  -0.04  0.35
6420.96  -0.04  0.35
6422.44  0.14   0.36
6423.92  0.24   0.35
6425.40  0.32   0.34
6426.88  0.47   0.34
6428.36  0.46   0.34
6429.84  0.29   0.34
6431.32  0.23   0.34
6432.80  0.28   0.34
6434.28  0.14   0.34
6435.76  -0.13  0.33
6437.24  -0.17  0.33
6438.73  0.14   0.33
6440.21  0.46   0.34
6441.69  0.51   0.34
6443.18  0.41   0.33
6444.66  0.33   0.34
6446.14  0.38   0.34
6447.63  0.36   0.34
6449.11  0.22   0.34
6450.60  0.29   0.34
6452.08  0.49   0.36
6453.57  0.56   0.36
6455.06  0.56   0.34
6456.54  0.48   0.33
6458.03  0.37   0.35
6459.52  0.25   0.35
6461.00  0.21   0.35
6462.49  0.26   0.35
6463.98  0.28   0.36
6465.47  0.29   0.39
6466.96  0.30   0.41
6468.45  0.26   0.40
6469.94  0.25   0.37
6471.43  0.39   0.38
6472.92  0.48   0.39
6474.41  0.44   0.36
6475.90  0.38   0.33
6477.39  0.28   0.33
6478.88  0.15   0.34
6480.37  0.22   0.34
6481.87  0.52   0.33
6483.36  0.82   0.32
6484.85  0.92   0.33
6486.34  0.76   0.32
6487.84  0.51   0.32
6489.33  0.37   0.32
6490.83  0.25   0.32
6492.32  0.14   0.31
6493.82  0.15   0.32
6495.31  0.16   0.31
6496.81  0.05   0.32
6498.30  0.20   0.36
6499.80  0.79   0.47
6501.30  1.14   0.46
6502.79  0.81   0.39
6504.29  0.36   0.36
6505.79  0.24   0.37
6507.29  0.18   0.35
6508.79  0.19   0.34
6510.28  0.30   0.32
6511.78  0.32   0.32
6513.28  0.17   0.32
6514.78  0.02   0.32
6516.28  0.05   0.32
6517.78  0.06   0.31
6519.29  0.00   0.31
6520.79  -0.00  0.31
6522.29  0.03   0.33
6523.79  -0.01  0.34
6525.29  -0.05  0.34
6526.80  0.09   0.32
6528.30  0.29   0.31
6529.80  0.34   0.31
6531.31  0.20   0.31
6532.81  0.06   0.36
6534.31  0.05   0.41
6535.82  -0.04  0.40
6537.32  -0.12  0.35
6538.83  -0.08  0.31
6540.34  0.09   0.31
6541.84  0.27   0.31
6543.35  0.24   0.33
6544.85  0.09   0.35
6546.36  0.01   0.35
6547.87  0.09   0.34
6549.38  0.25   0.33
6550.89  0.27   0.32
6552.39  0.20   0.35
6553.90  0.25   0.40
6555.41  0.39   0.44
6556.92  0.42   0.42
6558.43  0.19   0.33
6559.94  -0.02  0.30
6561.45  -0.16  0.32
6562.96  -0.35  0.36
6564.48  -0.34  0.38
6565.99  -0.14  0.36
6567.50  -0.05  0.33
6569.01  -0.06  0.32
6570.52  0.06   0.33
6572.04  0.17   0.33
6573.55  0.01   0.31
6575.06  -0.24  0.30
6576.58  -0.15  0.33
6578.09  0.06   0.38
6579.61  0.07   0.39
6581.12  -0.08  0.34
6582.64  -0.22  0.31
6584.15  -0.20  0.30
6585.67  -0.08  0.30
6587.19  -0.02  0.30
6588.70  -0.12  0.30
6590.22  -0.30  0.29
6591.74  -0.41  0.30
6593.26  -0.34  0.30
6594.78  -0.17  0.30
6596.29  -0.12  0.31
6597.81  -0.17  0.32
6599.33  -0.18  0.32
6600.85  -0.19  0.31
6602.37  -0.29  0.30
6603.89  -0.28  0.32
6605.41  -0.02  0.35
6606.93  0.29   0.34
6608.46  0.34   0.32
6609.98  0.22   0.30
6611.50  0.18   0.30
6613.02  0.18   0.30
6614.55  0.11   0.30
6616.07  0.11   0.30
6617.59  0.22   0.30
6619.12  0.27   0.30
6620.64  0.20   0.30
6622.16  0.11   0.30
6623.69  0.15   0.30
6625.22  0.37   0.30
6626.74  0.59   0.31
6628.27  0.61   0.31
6629.79  0.43   0.31
6631.32  0.19   0.31
6632.85  -0.03  0.30
6634.37  -0.13  0.31
6635.90  0.03   0.32
6637.43  0.28   0.32
6638.96  0.39   0.30
6640.49  0.49   0.30
6642.02  0.62   0.31
6643.55  0.76   0.31
6645.08  0.91   0.31
6646.61  1.01   0.31
6648.14  1.03   0.31
6649.67  1.10   0.30
6651.20  1.24   0.31
6652.73  1.38   0.31
6654.26  1.38   0.31
6655.80  1.29   0.30
6657.33  1.29   0.31
6658.86  1.38   0.30
6660.40  1.66   0.31
6661.93  1.99   0.32
6663.46  2.10   0.32
6665.00  2.06   0.32
6666.53  2.07   0.31
6668.07  2.20   0.32
6669.60  2.45   0.32
6671.14  2.74   0.32
6672.68  2.90   0.32
6674.21  2.84   0.32
6675.75  2.69   0.31
6677.29  2.53   0.31
6678.82  2.57   0.30
6680.36  2.91   0.32
6681.90  3.31   0.31
6683.44  3.71   0.32
6684.98  3.94   0.32
6686.52  3.97   0.32
6688.06  3.95   0.32
6689.60  3.88   0.32
6691.14  3.80   0.32
6692.68  3.77   0.32
6694.22  3.89   0.32
6695.76  4.11   0.32
6697.30  4.25   0.33
6698.85  4.27   0.33
6700.39  4.25   0.34
6701.93  4.17   0.33
6703.48  4.05   0.33
6705.02  3.94   0.33
6706.56  3.89   0.33
6708.11  3.92   0.33
6709.65  3.93   0.33
6711.20  3.97   0.33
6712.74  4.06   0.32
6714.29  4.09   0.33
6715.84  4.10   0.33
6717.38  4.13   0.33
6718.93  4.12   0.33
6720.48  4.16   0.33
6722.02  4.20   0.33
6723.57  4.15   0.34
6725.12  4.10   0.34
6726.67  4.06   0.33
6728.22  3.98   0.34
6729.77  3.87   0.34
6731.32  3.85   0.34
6732.87  3.91   0.35
6734.42  3.90   0.36
6735.97  3.74   0.33
6737.52  3.51   0.32
6739.07  3.36   0.32
6740.62  3.32   0.32
6742.17  3.38   0.32
6743.73  3.43   0.32
6745.28  3.37   0.33
6746.83  3.08   0.38
6748.39  2.73   0.43
6749.94  2.62   0.44
6751.50  2.80   0.39
6753.05  3.38   0.33
6754.61  4.22   0.31
6756.16  4.63   0.32
6757.72  4.33   0.31
6759.27  3.82   0.31
6760.83  3.61   0.31
6762.39  3.64   0.31
6763.94  3.66   0.31
6765.50  3.65   0.31
6767.06  3.55   0.32
6768.62  3.39   0.34
6770.18  3.24   0.37
6771.74  3.04   0.36
6773.29  3.01   0.34
6774.86  3.23   0.32
6776.42  3.46   0.32
6777.98  3.44   0.32
6779.54  3.37   0.31
6781.10  3.46   0.32
6782.66  3.53   0.31
6784.22  3.56   0.31
6785.78  3.54   0.33
6787.35  3.36   0.33
6788.91  3.16   0.32
6790.47  3.05   0.32
6792.04  2.95   0.33
6793.60  2.78   0.32
6795.17  2.63   0.30
6796.73  2.58   0.30
6798.29  2.45   0.30
6799.86  2.34   0.30
6801.43  2.36   0.30
6802.99  2.39   0.30
6804.56  2.40   0.30
6806.13  2.37   0.30
6807.69  2.28   0.30
6809.26  2.14   0.30
6810.83  2.03   0.30
6812.40  1.96   0.30
6813.97  1.91   0.30
6815.54  1.86   0.30
6817.11  1.83   0.29
6818.68  1.81   0.30
6820.25  1.73   0.30
6821.82  1.68   0.29
6823.39  1.77   0.29
6824.96  1.92   0.30
6826.53  2.01   0.32
6828.10  2.00   0.37
6829.67  1.93   0.45
6831.25  1.73   0.48
6832.82  1.39   0.44
6834.39  1.33   0.44
6835.97  1.52   0.45
6837.54  1.53   0.40
6839.12  1.53   0.34
6840.69  1.58   0.32
6842.27  1.50   0.33
6843.84  1.34   0.34
6845.42  1.22   0.32
6846.99  1.33   0.30
6848.57  1.47   0.30
6850.15  1.39   0.30
6851.73  1.14   0.30
6853.30  0.92   0.29
6854.88  1.01   0.29
6856.46  1.14   0.29
6858.04  1.11   0.28
6859.62  1.00   0.28
6861.20  0.85   0.31
6862.78  0.67   0.38
6864.36  0.65   0.50
6865.94  0.81   0.56
6867.52  0.93   0.51
6869.10  0.92   0.40
6870.68  0.88   0.40
6872.27  0.94   0.43
6873.85  1.03   0.41
6875.43  1.17   0.36
6877.02  1.17   0.35
6878.60  0.81   0.33
6880.18  0.45   0.33
6881.77  0.33   0.34
6883.35  0.49   0.34
6884.94  0.75   0.33
6886.52  0.81   0.31
6888.11  0.66   0.33
6889.69  0.40   0.37
6891.28  0.33   0.38
6892.87  0.57   0.37
6894.46  0.70   0.33
6896.04  0.59   0.31
6897.63  0.69   0.31
6899.22  0.97   0.32
6900.81  1.12   0.36
6902.40  1.10   0.39
6903.99  0.95   0.38
6905.58  0.65   0.35
6907.17  0.22   0.34
6908.76  -0.02  0.32
6910.35  0.16   0.31
6911.94  0.47   0.32
6913.53  0.60   0.37
6915.12  0.60   0.39
6916.72  0.59   0.34
6918.31  0.53   0.30
6919.90  0.26   0.30
6921.50  -0.00  0.34
6923.09  -0.04  0.40
6924.68  0.07   0.46
6926.28  0.23   0.44
6927.87  0.39   0.34
6929.47  0.59   0.29
6931.07  0.64   0.29
6932.66  0.43   0.28
6934.26  0.27   0.27
6935.85  0.44   0.27
6937.45  0.75   0.28
6939.05  0.88   0.31
6940.65  0.75   0.35
6942.25  0.49   0.36
6943.84  0.30   0.31
6945.44  0.43   0.28
6947.04  0.61   0.31
6948.64  0.57   0.37
6950.24  0.53   0.47
6951.84  0.50   0.48
6953.44  0.46   0.37
6955.05  0.40   0.30
6956.65  0.26   0.28
6958.25  0.19   0.29
6959.85  0.27   0.29
6961.45  0.45   0.29
6963.06  0.69   0.28
6964.66  0.81   0.28
6966.27  0.84   0.28
6967.87  0.88   0.29
6969.47  0.91   0.31
6971.08  0.83   0.34
6972.68  0.73   0.33
6974.29  0.67   0.30
6975.90  0.47   0.28
6977.50  0.19   0.31
6979.11  0.02   0.37
6980.72  0.06   0.39
6982.32  0.31   0.35
6983.93  0.43   0.29
6985.54  0.47   0.28
6987.15  0.55   0.29
6988.76  0.57   0.28
6990.37  0.59   0.28
6991.98  0.61   0.28
6993.59  0.58   0.28
6995.20  0.51   0.28
6996.81  0.41   0.28
6998.42  0.32   0.28
7000.03  0.32   0.28
7001.64  0.43   0.28
7003.26  0.50   0.29
7004.87  0.57   0.31
7006.48  0.64   0.31
7008.10  0.58   0.28
7009.71  0.57   0.28
7011.32  0.54   0.31
7012.94  0.43   0.33
7014.55  0.41   0.32
7016.17  0.40   0.29
7017.78  0.22   0.27
7019.40  0.12   0.26
7021.02  0.24   0.27
7022.63  0.39   0.27
7024.25  0.50   0.27
7025.87  0.59   0.27
7027.49  0.62   0.27
7029.10  0.52   0.27
7030.72  0.33   0.27
7032.34  0.21   0.27
7033.96  0.21   0.26
7035.58  0.32   0.27
7037.20  0.36   0.27
7038.82  0.35   0.26
7040.44  0.48   0.27
7042.06  0.65   0.29
7043.69  0.60   0.29
7045.31  0.44   0.28
7046.93  0.31   0.29
7048.55  0.15   0.31
7050.18  0.02   0.32
7051.80  0.07   0.31
7053.42  0.24   0.30
7055.05  0.43   0.30
7056.67  0.62   0.29
7058.30  0.77   0.29
7059.92  0.85   0.28
7061.55  0.92   0.29
7063.18  0.99   0.30
7064.80  0.96   0.30
7066.43  0.78   0.30
7068.06  0.50   0.31
7069.68  0.26   0.31
7071.31  0.17   0.31
7072.94  0.16   0.30
7074.57  0.29   0.28
7076.20  0.45   0.28
7077.83  0.48   0.28
7079.46  0.42   0.28
7081.09  0.41   0.28
7082.72  0.54   0.28
7084.35  0.77   0.29
7085.98  0.96   0.29
7087.61  0.97   0.28
7089.24  0.80   0.29
7090.88  0.59   0.30
7092.51  0.47   0.29
7094.14  0.48   0.28
7095.78  0.48   0.27
7097.41  0.45   0.27
7099.05  0.50   0.27
7100.68  0.62   0.27
7102.32  0.71   0.27
7103.95  0.63   0.27
7105.59  0.53   0.27
7107.22  0.55   0.27
7108.86  0.54   0.27
7110.50  0.41   0.27
7112.14  0.29   0.27
7113.77  0.37   0.27
7115.41  0.44   0.27
7117.05  0.36   0.26
7118.69  0.32   0.26
7120.33  0.29   0.26
7121.97  0.24   0.26
7123.61  0.26   0.26
7125.25  0.29   0.27
7126.89  0.36   0.27
7128.53  0.49   0.28
7130.17  0.51   0.28
7131.81  0.44   0.28
7133.46  0.39   0.28
7135.10  0.45   0.28
7136.74  0.55   0.27
7138.39  0.54   0.27
7140.03  0.43   0.27
7141.67  0.29   0.27
7143.32  0.23   0.28
7144.96  0.25   0.29
7146.61  0.22   0.30
7148.25  0.14   0.29
7149.90  0.11   0.28
7151.55  0.18   0.28
7153.19  0.29   0.27
7154.84  0.30   0.27
7156.49  0.28   0.27
7158.14  0.30   0.27
7159.79  0.30   0.27
7161.43  0.30   0.28
7163.08  0.43   0.28
7164.73  0.54   0.28
7166.38  0.62   0.28
7168.03  0.78   0.29
7169.68  0.84   0.29
7171.33  0.76   0.29
7172.99  0.57   0.29
7174.64  0.36   0.28
7176.29  0.43   0.29
7177.94  0.56   0.29
7179.60  0.58   0.29
7181.25  0.75   0.29
7182.90  0.83   0.29
7184.56  0.58   0.29
7186.21  0.26   0.30
7187.87  0.17   0.29
7189.52  0.29   0.31
7191.18  0.37   0.30
7192.83  0.40   0.30
7194.49  0.48   0.31
7196.15  0.48   0.31
7197.80  0.43   0.30
7199.46  0.44   0.30
7201.12  0.51   0.31
7202.78  0.56   0.31
7204.44  0.74   0.29
7206.10  0.92   0.29
7207.76  0.87   0.27
7209.41  0.79   0.27
7211.07  0.76   0.27
7212.74  0.74   0.27
7214.40  0.79   0.28
7216.06  0.83   0.28
7217.72  0.91   0.28
7219.38  1.00   0.28
7221.04  1.02   0.28
7222.71  0.99   0.28
7224.37  0.85   0.29
7226.03  0.60   0.28
7227.70  0.51   0.27
7229.36  0.69   0.27
7231.03  0.84   0.29
7232.69  0.84   0.29
7234.36  0.89   0.31
7236.02  0.84   0.31
7237.69  0.93   0.33
7239.36  1.37   0.45
7241.02  1.43   0.58
7242.69  0.82   0.66
7244.36  0.11   0.61
7246.03  0.05   0.63
7247.70  0.60   0.61
7249.37  0.76   0.46
7251.04  0.31   0.33
7252.70  0.11   0.33
7254.37  0.31   0.38
7256.05  0.56   0.38
7257.72  0.69   0.34
7259.39  0.65   0.30
7261.06  0.64   0.28
7262.73  0.78   0.28
7264.40  0.91   0.29
7266.08  0.88   0.29
7267.75  0.76   0.29
7269.42  0.70   0.30
7271.10  0.71   0.30
7272.77  0.73   0.30
7274.45  0.61   0.33
7276.12  0.55   0.53
7277.80  0.73   0.76
7279.47  0.96   0.71
7281.15  1.01   0.46
7282.83  0.78   0.35
7284.50  0.42   0.40
7286.18  0.38   0.49
7287.86  0.55   0.45
7289.54  0.58   0.34
7291.22  0.41   0.29
7292.90  0.25   0.29
7294.58  0.28   0.29
7296.26  0.40   0.33
7297.93  0.48   0.35
7299.62  0.55   0.32
7301.30  0.56   0.29
7302.98  0.52   0.31
7304.66  0.50   0.39
7306.34  0.53   0.41
7308.02  0.70   0.35
7309.71  0.83   0.30
7311.39  0.66   0.29
7313.07  0.42   0.30
7314.76  0.38   0.33
7316.44  0.42   0.50
7318.13  0.50   0.66
7319.81  0.50   0.60
7321.50  0.28   0.37
7323.19  0.11   0.28
7324.87  0.33   0.27
7326.56  0.39   0.27
7328.25  0.00   0.32
7329.93  -0.19  0.41
7331.62  0.04   0.46
7333.31  0.21   0.37
7335.00  0.19   0.29
7336.69  0.15   0.26
7338.38  -0.08  0.28
7340.07  -0.36  0.39
7341.76  -0.03  0.64
7343.45  0.68   0.73
7345.14  0.98   0.50
7346.83  0.64   0.32
7348.52  0.25   0.28
7350.21  0.20   0.27
7351.91  0.35   0.28
7353.60  0.59   0.29
7355.29  0.70   0.28
7356.99  0.65   0.29
7358.68  0.65   0.36
7360.38  0.61   0.43
7362.07  0.51   0.40
7363.77  0.58   0.32
7365.46  0.61   0.28
7367.16  0.29   0.30
7368.86  -0.04  0.42
7370.55  0.06   0.60
7372.25  0.57   0.59
7373.95  1.02   0.42
7375.64  1.11   0.31
7377.34  0.89   0.28
7379.04  0.61   0.27
7380.74  0.55   0.26
7382.44  0.66   0.27
7384.14  0.68   0.27
7385.84  0.70   0.27
7387.54  0.75   0.27
7389.24  0.66   0.27
7390.95  0.59   0.29
7392.65  0.77   0.37
7394.35  0.88   0.41
7396.05  0.67   0.37
7397.76  0.44   0.30
7399.46  0.39   0.30
7401.16  0.52   0.36
7402.87  0.88   0.51
7404.57  1.11   0.52
7406.28  0.97   0.38
7407.98  0.67   0.27
7409.69  0.48   0.26
7411.40  0.34   0.27
7413.10  0.36   0.28
7414.81  0.57   0.29
7416.52  0.68   0.28
7418.23  0.65   0.28
7419.93  0.62   0.28
7421.64  0.69   0.27
7423.35  0.78   0.27
7425.06  0.66   0.27
7426.77  0.45   0.26
7428.48  0.41   0.27
7430.19  0.36   0.31
7431.90  0.27   0.34
7433.61  0.38   0.31
7435.33  0.56   0.28
7437.04  0.58   0.28
7438.75  0.65   0.35
7440.46  0.86   0.41
7442.18  0.99   0.36
7443.89  1.00   0.29
7445.61  0.96   0.27
7447.32  0.90   0.26
7449.03  0.90   0.26
7450.75  0.98   0.26
7452.47  1.03   0.27
7454.18  0.96   0.27
7455.90  0.83   0.26
7457.62  0.75   0.26
7459.33  0.81   0.27
7461.05  0.99   0.27
7462.77  1.09   0.29
7464.49  1.12   0.30
7466.21  1.14   0.31
7467.93  1.02   0.33
7469.65  0.83   0.32
7471.37  0.82   0.32
7473.09  0.88   0.37
7474.81  0.81   0.38
7476.53  0.69   0.36
7478.25  0.64   0.32
7479.97  0.74   0.33
7481.70  0.95   0.38
7483.42  1.08   0.40
7485.14  1.06   0.40
7486.86  0.95   0.36
7488.59  0.95   0.30
7490.31  1.05   0.28
7492.04  1.05   0.27
7493.76  0.98   0.29
7495.49  0.93   0.31
7497.22  0.92   0.30
7498.94  1.01   0.28
7500.67  1.13   0.27
7502.40  1.16   0.28
7504.12  1.12   0.27
7505.85  1.06   0.27
7507.58  0.91   0.26
7509.31  0.88   0.26
7511.04  1.02   0.27
7512.77  1.05   0.27
7514.50  1.01   0.26
7516.23  0.99   0.27
7517.96  0.94   0.29
7519.69  0.81   0.30
7521.42  0.67   0.30
7523.15  0.76   0.36
7524.89  0.97   0.51
7526.62  0.98   0.55
7528.35  0.82   0.43
7530.09  0.70   0.34
7531.82  0.63   0.37
7533.56  0.63   0.36
7535.29  0.77   0.31
7537.03  0.88   0.27
7538.76  1.00   0.27
7540.50  1.11   0.29
7542.23  1.02   0.30
7543.97  0.90   0.29
7545.71  0.81   0.28
7547.45  0.72   0.27
7549.18  0.72   0.27
7550.92  0.72   0.27
7552.66  0.58   0.27
7554.40  0.44   0.27
7556.14  0.51   0.28
7557.88  0.73   0.32
7559.62  0.71   0.35
7561.36  0.41   0.32
7563.10  0.23   0.27
7564.84  0.31   0.27
7566.59  0.46   0.27
7568.33  0.64   0.28
7570.07  0.73   0.31
7571.82  0.68   0.39
7573.56  0.70   0.51
7575.30  0.75   0.45
7577.05  0.73   0.34
7578.79  0.65   0.28
7580.54  0.59   0.27
7582.28  0.59   0.26
7584.03  0.60   0.27
7585.78  0.60   0.31
7587.52  0.71   0.37
7589.27  0.83   0.36
7591.02  0.76   0.30
7592.77  0.60   0.27
7594.51  0.55   0.29
7596.26  0.41   0.34
7598.01  0.31   0.50
7599.76  0.64   0.74
7601.51  1.20   0.85
7603.26  1.43   0.74
7605.01  1.21   0.70
7606.76  1.02   0.69
7608.52  1.09   0.68
7610.27  1.10   0.64
7612.02  1.01   0.59
7613.77  0.98   0.51
7615.53  0.90   0.45
7617.28  0.77   0.41
7619.04  0.67   0.41
7620.79  0.53   0.39
7622.54  0.49   0.38
7624.30  0.51   0.41
7626.06  0.52   0.43
7627.81  0.47   0.48
7629.57  0.44   0.61
7631.33  0.68   0.64
7633.08  0.95   0.53
7634.84  1.02   0.43
7636.60  0.86   0.40
7638.36  0.66   0.39
7640.12  0.59   0.38
7641.88  0.59   0.38
7643.64  0.66   0.37
7645.40  0.70   0.37
7647.16  0.70   0.36
7648.92  0.72   0.34
7650.68  0.57   0.34
7652.44  0.30   0.34
7654.20  0.20   0.35
7655.97  0.28   0.37
7657.73  0.43   0.33
7659.49  0.64   0.30
7661.26  0.79   0.32
7663.02  0.70   0.38
7664.79  0.65   0.39
7666.55  0.76   0.35
7668.32  0.80   0.30
7670.08  0.77   0.28
7671.85  0.65   0.28
7673.61  0.44   0.28
7675.38  0.36   0.28
7677.15  0.58   0.27
7678.92  0.97   0.28
7680.69  1.01   0.28
7682.45  0.69   0.28
7684.22  0.49   0.29
7685.99  0.61   0.29
7687.76  0.79   0.30
7689.53  0.73   0.30
7691.30  0.66   0.30
7693.08  0.62   0.31
7694.85  0.56   0.30
7696.62  0.49   0.29
7698.39  0.50   0.29
7700.16  0.64   0.32
7701.94  0.76   0.33
7703.71  0.73   0.31
7705.49  0.58   0.28
7707.26  0.46   0.27
7709.03  0.44   0.27
7710.81  0.38   0.31
7712.59  0.29   0.49
7714.36  0.38   0.69
7716.14  0.62   0.72
7717.91  0.73   0.71
7719.69  0.67   0.70
7721.47  0.55   0.49
7723.25  0.49   0.35
7725.03  0.62   0.37
7726.81  0.70   0.42
7728.59  0.58   0.40
7730.37  0.48   0.33
7732.15  0.45   0.29
7733.93  0.38   0.28
7735.71  0.24   0.30
7737.49  0.12   0.32
7739.27  0.16   0.31
7741.05  0.23   0.30
7742.83  0.14   0.29
7744.62  0.05   0.28
7746.40  0.04   0.29
7748.19  0.01   0.32
7749.97  0.13   0.48
7751.75  0.44   0.79
7753.54  0.63   0.84
7755.33  0.55   0.50
7757.11  0.27   0.32
7758.90  0.21   0.35
7760.68  0.38   0.47
7762.47  0.45   0.52
7764.26  0.34   0.40
7766.05  0.30   0.29
7767.83  0.28   0.27
7769.62  0.30   0.27
7771.41  0.41   0.29
7773.20  0.32   0.33
7774.99  0.19   0.39
7776.78  0.14   0.37
7778.57  0.08   0.31
7780.37  0.10   0.35
7782.16  0.23   0.47
7783.95  0.40   0.43
7785.74  0.42   0.33
7787.53  0.17   0.31
7789.33  0.02   0.31
7791.12  0.10   0.33
7792.92  0.26   0.40
7794.71  0.60   0.61
7796.51  0.92   0.76
7798.30  0.82   0.55
7800.10  0.38   0.33
7801.89  0.15   0.28
7803.69  0.27   0.27
7805.49  0.30   0.28
7807.28  0.04   0.31
7809.08  -0.04  0.42
7810.88  0.14   0.49
7812.68  0.16   0.41
7814.48  0.05   0.31
7816.28  -0.00  0.30
7818.08  -0.16  0.30
7819.88  -0.53  0.34
7821.68  -0.46  0.60
7823.48  0.15   0.80
7825.28  0.54   0.65
7827.08  0.49   0.37
7828.89  0.39   0.30
7830.69  0.44   0.29
7832.49  0.43   0.29
7834.30  0.34   0.28
7836.10  0.36   0.28
7837.91  0.52   0.28
7839.71  0.53   0.29
7841.52  0.50   0.40
7843.32  0.56   0.49
7845.13  0.51   0.40
7846.93  0.34   0.30
7848.74  0.17   0.29
7850.55  -0.28  0.35
7852.36  -0.57  0.45
7854.16  -0.20  0.71
7855.97  0.41   0.81
7857.78  0.76   0.59
7859.59  0.71   0.44
7861.40  0.62   0.52
7863.21  0.83   0.53
7865.02  0.93   0.40
7866.83  0.64   0.31
7868.65  0.47   0.37
7870.46  0.49   0.49
7872.27  0.50   0.58
7874.08  0.52   0.51
7875.90  0.44   0.34
7877.71  0.23   0.31
7879.52  0.10   0.42
7881.34  0.08   0.50
7883.15  0.06   0.47
7884.97  0.14   0.40
7886.79  0.22   0.34
7888.60  0.04   0.35
7890.42  0.04   0.51
7892.23  0.34   0.61
7894.05  0.56   0.48
7895.87  0.55   0.34
7897.69  0.53   0.31
7899.51  0.61   0.30
7901.33  0.70   0.29
7903.15  0.68   0.29
7904.97  0.45   0.29
7906.79  0.29   0.29
7908.61  0.42   0.30
7910.43  0.44   0.31
7912.25  0.37   0.41
7914.07  0.48   0.75
7915.89  0.53   0.93
7917.72  0.29   0.68
7919.54  0.07   0.46
7921.36  0.40   0.50
7923.19  0.93   0.64
7925.01  1.22   0.51
7926.84  1.09   0.34
7928.66  0.62   0.30
7930.49  0.29   0.35
7932.32  0.34   0.49
7934.14  0.42   0.53
7935.97  0.33   0.40
7937.80  0.33   0.30
7939.63  0.54   0.29
7941.45  0.66   0.29
7943.28  0.56   0.29
7945.11  0.56   0.29
7946.94  0.64   0.31
7948.77  0.84   0.36
7950.60  0.97   0.45
7952.43  0.87   0.44
7954.26  0.72   0.33
7956.10  0.66   0.28
7957.93  0.63   0.27
7959.76  0.59   0.27
7961.59  0.48   0.28
7963.43  0.49   0.37
7965.26  0.90   0.66
7967.10  1.33   0.77
7968.93  1.31   0.58
7970.77  0.91   0.37
7972.60  0.64   0.30
7974.44  0.72   0.28
7976.27  0.81   0.30
7978.11  0.68   0.36
7979.95  0.57   0.48
7981.78  0.62   0.56
7983.62  0.70   0.43
7985.46  0.73   0.31
7987.30  0.77   0.28
7989.14  0.71   0.29
7990.98  0.55   0.32
7992.82  0.59   0.46
7994.66  0.74   0.80
7996.50  0.71   0.76
7998.34  0.60   0.47
8000.18  0.63   0.32
8002.03  0.75   0.30
8003.87  0.77   0.29
8005.71  0.76   0.29
8007.56  0.71   0.28
8009.40  0.66   0.27
8011.24  0.61   0.28
8013.09  0.59   0.32
8014.94  0.60   0.44
8016.78  0.47   0.48
8018.63  0.28   0.39
8020.47  0.32   0.30
8022.32  0.52   0.30
8024.17  0.34   0.36
8026.02  0.03   0.58
8027.86  0.11   0.74
8029.71  0.34   0.59
8031.56  0.39   0.41
8033.41  0.39   0.31
8035.26  0.45   0.29
8037.11  0.51   0.28
8038.96  0.61   0.27
8040.81  0.64   0.27
8042.67  0.62   0.27
8044.52  0.65   0.27
8046.37  0.61   0.27
8048.22  0.45   0.26
8050.08  0.25   0.28
8051.93  0.11   0.33
8053.78  0.10   0.40
8055.64  0.15   0.36
8057.49  0.32   0.29
8059.35  0.47   0.27
8061.21  0.49   0.31
8063.06  0.56   0.45
8064.92  0.59   0.50
8066.78  0.49   0.37
8068.63  0.38   0.28
8070.49  0.26   0.27
8072.35  0.17   0.26
8074.21  0.27   0.26
8076.07  0.45   0.27
8077.93  0.47   0.28
8079.79  0.38   0.28
8081.65  0.36   0.27
8083.51  0.31   0.27
8085.37  0.14   0.28
8087.23  0.03   0.29
8089.10  0.06   0.27
8090.96  0.15   0.26
8092.82  0.29   0.27
8094.69  0.38   0.32
8096.55  0.30   0.33
8098.41  0.21   0.29
8100.28  0.20   0.27
8102.14  0.33   0.30
8104.01  0.49   0.38
8105.88  0.47   0.38
8107.74  0.32   0.30
8109.61  0.21   0.27
8111.48  0.27   0.26
8113.35  0.44   0.27
8115.21  0.46   0.27
8117.08  0.34   0.26
8118.95  0.26   0.26
8120.82  0.34   0.26
8122.69  0.51   0.26
8124.56  0.61   0.27
8126.43  0.65   0.27
8128.31  0.57   0.27
8130.18  0.37   0.27
8132.05  0.22   0.27
8133.92  0.12   0.28
8135.79  0.10   0.28
8137.67  0.10   0.28
8139.54  0.05   0.30
8141.42  -0.01  0.31
8143.29  -0.10  0.29
8145.17  -0.15  0.27
8147.04  -0.03  0.30
8148.92  0.22   0.33
8150.80  0.41   0.31
8152.67  0.43   0.28
8154.55  0.38   0.27
8156.43  0.44   0.27
8158.31  0.47   0.27
8160.19  0.34   0.27
8162.06  0.18   0.28
8163.94  0.13   0.29
8165.82  0.26   0.29
8167.70  0.39   0.29
8169.58  0.37   0.27
8171.47  0.34   0.28
8173.35  0.33   0.28
8175.23  0.28   0.27
8177.11  0.31   0.27
8179.00  0.42   0.29
8180.88  0.49   0.30
8182.76  0.52   0.31
8184.65  0.59   0.31
8186.53  0.75   0.33
8188.42  0.75   0.34
8190.30  0.64   0.34
8192.19  0.75   0.34
8194.08  0.98   0.33
8195.96  0.80   0.34
8197.85  0.33   0.36
8199.74  0.23   0.35
8201.63  0.40   0.34
8203.52  0.36   0.31
8205.40  0.18   0.31
8207.29  0.19   0.31
8209.18  0.34   0.29
8211.07  0.35   0.29
8212.97  0.32   0.28
8214.86  0.37   0.28
8216.75  0.34   0.28
8218.64  0.27   0.27
8220.53  0.18   0.27
8222.43  0.12   0.27
8224.32  0.11   0.28
8226.21  0.10   0.29
8228.11  0.10   0.29
8230.00  0.10   0.30
8231.90  0.21   0.29
8233.79  0.37   0.29
8235.69  0.37   0.28
8237.59  0.23   0.27
8239.48  0.22   0.26
8241.38  0.36   0.27
8243.28  0.34   0.28
8245.18  0.26   0.28
8247.08  0.29   0.28
8248.98  0.31   0.28
8250.87  0.28   0.29
8252.78  0.20   0.28
8254.68  0.16   0.27
8256.58  0.20   0.29
8258.48  0.31   0.29
8260.38  0.46   0.28
8262.28  0.54   0.27
8264.18  0.59   0.27
8266.09  0.63   0.27
8267.99  0.55   0.27
8269.90  0.44   0.26
8271.80  0.41   0.27
8273.70  0.30   0.27
8275.61  0.12   0.27
8277.52  0.11   0.31
8279.42  0.09   0.44
8281.33  -0.03  0.56
8283.24  0.03   0.64
8285.14  0.24   0.58
8287.05  0.22   0.49
8288.96  0.31   0.65
8290.87  0.60   0.76
8292.78  0.61   0.56
8294.69  0.45   0.36
8296.60  0.30   0.42
8298.51  -0.08  0.67
8300.42  -0.44  0.80
8302.33  -0.38  0.69
8304.24  -0.07  0.43
8306.15  0.19   0.32
8308.07  0.17   0.29
8309.98  0.12   0.33
8311.89  0.26   0.47
8313.81  0.24   0.46
8315.72  0.12   0.32
8317.64  0.17   0.28
8319.55  0.21   0.30
8321.47  0.16   0.30
8323.39  0.25   0.28
8325.30  0.35   0.27
8327.22  0.33   0.26
8329.14  0.39   0.26
8331.05  0.52   0.26
8332.97  0.43   0.26
8334.89  0.27   0.26
8336.81  0.31   0.27
8338.73  0.39   0.29
8340.65  0.26   0.30
8342.57  -0.45  0.40
8344.49  -0.84  0.78
8346.42  -0.26  1.30
8348.34  0.60   1.13
8350.26  0.82   0.52
8352.18  0.39   0.47
8354.11  0.19   0.71
8356.03  0.25   0.70
8357.95  0.35   0.41
8359.88  0.29   0.29
8361.80  0.11   0.30
8363.73  -0.04  0.34
8365.66  0.13   0.43
8367.58  0.53   0.46
8369.51  0.64   0.35
8371.44  0.43   0.27
8373.36  0.30   0.26
8375.29  0.38   0.27
8377.22  0.40   0.27
8379.15  0.32   0.28
8381.08  0.12   0.34
8383.01  -0.06  0.51
8384.94  -0.03  0.61
8386.87  0.28   0.42
8388.80  0.60   0.29
8390.74  0.68   0.27
8392.67  0.64   0.28
8394.60  0.57   0.28
8396.53  0.35   0.28
8398.47  0.21   0.50
8400.40  0.51   1.00
8402.34  1.02   1.05
8404.27  1.23   0.52
8406.20  0.96   0.29
8408.14  0.62   0.26
8410.08  0.44   0.26
8412.01  0.24   0.26
8413.95  -0.04  0.31
8415.89  -0.18  0.54
8417.83  0.06   0.64
8419.77  0.56   0.49
8421.70  0.97   0.29
8423.64  0.98   0.28
8425.58  0.56   0.29
8427.52  -0.21  0.31
8429.46  -0.79  0.51
8431.41  -0.71  1.07
8433.35  -0.23  1.17
8435.29  0.21   0.57
8437.23  0.37   0.31
8439.17  0.36   0.27
8441.12  0.34   0.26
8443.06  0.34   0.26
8445.01  0.37   0.26
8446.95  0.43   0.26
8448.90  0.42   0.27
8450.84  0.22   0.30
8452.79  0.11   0.49
8454.74  0.19   0.61
8456.68  0.40   0.45
8458.63  0.50   0.29
8460.58  0.46   0.26
8462.53  0.44   0.28
8464.48  0.39   0.40
8466.42  0.68   0.82
8468.37  1.24   0.92
8470.32  1.47   0.50
8472.27  1.10   0.28
8474.23  0.60   0.27
8476.18  0.25   0.30
8478.13  0.02   0.29
8480.08  -0.06  0.27
8482.03  -0.10  0.26
8483.99  -0.04  0.26
8485.94  0.16   0.25
8487.90  0.26   0.26
8489.85  0.17   0.26
8491.80  0.07   0.26
8493.76  0.29   0.39
8495.72  0.62   0.50
8497.67  0.73   0.41
8499.63  0.63   0.30
8501.59  0.41   0.28
8503.54  -0.00  0.35
8505.50  -0.17  0.59
8507.46  0.05   0.69
8509.42  0.33   0.48
8511.38  0.40   0.28
8513.34  0.39   0.25
8515.30  0.56   0.25
8517.26  0.78   0.26
8519.22  0.75   0.26
8521.19  0.57   0.26
8523.15  0.41   0.27
8525.11  0.26   0.26
8527.07  0.23   0.25
8529.04  0.26   0.25
8531.00  0.18   0.25
8532.97  0.14   0.25
8534.93  0.18   0.25
8536.90  0.12   0.26
8538.86  -0.12  0.31
8540.83  -0.37  0.39
8542.79  -0.35  0.33
8544.76  -0.07  0.27
8546.73  0.25   0.27
8548.70  0.61   0.36
8550.67  0.95   0.49
8552.64  1.06   0.42
8554.61  0.87   0.30
8556.58  0.43   0.26
8558.55  0.13   0.25
8560.52  0.10   0.25
8562.49  0.14   0.25
8564.46  0.16   0.25
8566.43  0.08   0.25
8568.41  -0.03  0.25
8570.38  -0.05  0.25
8572.35  -0.02  0.25
8574.33  0.11   0.26
8576.30  0.23   0.27
8578.28  0.22   0.28
8580.25  0.12   0.27
8582.23  0.04   0.26
8584.20  -0.02  0.25
8586.18  -0.05  0.25
8588.16  -0.14  0.28
8590.13  -0.15  0.33
8592.11  0.01   0.31
8594.09  0.13   0.26
8596.07  0.03   0.27
8598.05  -0.14  0.33
8600.03  -0.23  0.35
8602.01  -0.17  0.29
8603.99  -0.05  0.26
8605.97  -0.02  0.26
8607.96  0.01   0.26
8609.94  0.08   0.27
8611.92  0.09   0.28
8613.90  0.10   0.30
8615.89  0.16   0.34
8617.87  0.13   0.38
8619.86  -0.01  0.42
8621.84  -0.10  0.47
8623.83  -0.06  0.50
8625.81  0.09   0.54
8627.80  0.23   0.57
8629.79  0.38   0.60
8631.77  0.57   0.61
8633.76  0.55   0.60
8635.75  0.30   0.58
8637.74  0.06   0.54
8639.73  0.09   0.51
8641.72  0.37   0.46
8643.71  0.54   0.41
8645.70  0.44   0.34
8647.69  0.29   0.37
8649.68  0.20   0.44
8651.67  0.24   0.52
8653.66  0.30   0.55
8655.66  0.38   0.55
8657.65  0.42   0.60
8659.64  0.29   0.57
8661.64  0.13   0.59
8663.63  0.01   0.56
8665.63  0.14   0.56
8667.62  0.69   0.57
8669.62  1.02   0.50
8671.62  0.86   0.52
8673.61  0.53   0.49
8675.61  0.23   0.43
8677.61  0.35   0.46
8679.61  0.75   0.42
8681.60  0.91   0.37
8683.60  0.94   0.39
8685.60  1.16   0.35
8687.60  1.32   0.34
8689.60  1.21   0.34
8691.61  1.00   0.30
8693.61  0.99   0.30
8695.61  1.19   0.31
8697.61  1.24   0.29
8699.61  1.12   0.29
8701.62  1.08   0.32
8703.62  1.10   0.31
8705.63  1.03   0.28
8707.63  1.09   0.30
8709.64  1.27   0.32
8711.64  1.43   0.30
8713.65  1.52   0.28
8715.65  1.57   0.26
8717.66  1.58   0.27
8719.67  1.54   0.27
8721.68  1.56   0.27
8723.69  1.59   0.27
8725.69  1.48   0.27
8727.70  1.29   0.28
8729.71  1.13   0.28
8731.72  1.11   0.27
8733.73  1.09   0.26
8735.75  0.87   0.26
8737.76  0.54   0.26
8739.77  0.38   0.27
8741.78  0.59   0.28
8743.80  1.09   0.28
8745.81  1.64   0.28
8747.82  1.94   0.27
8749.84  1.85   0.28
8751.85  1.47   0.28
8753.87  1.04   0.28
8755.88  0.73   0.27
8757.90  0.56   0.32
8759.92  0.54   0.51
8761.93  0.75   0.77
8763.95  1.05   0.86
8765.97  0.67   0.66
8767.99  -0.15  0.85
8770.01  -0.07  1.07
8772.03  0.64   0.77
8774.05  1.01   0.39
8776.07  0.66   0.44
8778.09  0.38   0.79
8780.11  0.31   1.08
8782.13  0.32   0.83
8784.15  0.25   0.37
8786.18  0.19   0.25
8788.20  0.77   0.26
8790.23  1.39   0.33
8792.25  1.62   0.55
8794.27  1.68   0.59
8796.30  1.72   0.37
8798.32  1.66   0.27
8800.35  1.48   0.27
8802.38  1.35   0.27
8804.40  1.40   0.27
8806.43  1.55   0.27
8808.46  1.49   0.27
8810.49  1.15   0.30
8812.52  0.94   0.32
8814.55  1.11   0.30
8816.58  1.40   0.27
8818.61  1.49   0.27
8820.64  1.36   0.26
8822.67  1.02   0.27
8824.70  0.35   0.36
8826.73  0.09   1.02
8828.77  0.54   1.71
8830.80  1.33   1.43
8832.83  1.74   0.64
8834.87  1.47   0.49
8836.90  1.49   0.71
8838.94  1.75   0.92
8840.97  1.87   0.69
8843.01  1.94   0.32
8845.04  2.12   0.29
8847.08  2.28   0.31
8849.12  2.42   0.37
8851.16  2.57   0.52
8853.19  2.58   0.55
8855.23  2.41   0.34
8857.27  2.26   0.28
8859.31  2.29   0.28
8861.35  2.38   0.29
8863.39  2.37   0.32
8865.43  2.22   0.35
8867.48  2.19   0.51
8869.52  2.53   0.73
8871.56  2.97   0.62
8873.60  2.98   0.34
8875.65  2.62   0.28
8877.69  2.52   0.27
8879.74  2.52   0.28
8881.78  2.23   0.28
8883.82  1.80   0.32
8885.87  1.98   0.84
8887.92  2.80   1.45
8889.96  3.69   1.09
8892.01  3.80   0.41
8894.06  2.85   0.29
8896.11  2.20   0.29
8898.16  2.21   0.31
8900.20  2.16   0.31
8902.25  1.77   0.40
8904.30  1.38   0.82
8906.35  1.09   0.81
8908.41  1.02   0.48
8910.46  1.42   0.32
8912.51  2.27   0.31
8914.56  2.81   0.28
8916.61  2.34   0.29
8918.67  1.42   0.57
8920.72  1.29   1.30
8922.78  1.95   1.42
8924.83  2.74   0.74
8926.89  2.99   0.35
8928.94  2.68   0.33
8931.00  2.42   0.34
8933.06  2.16   0.32
8935.11  1.96   0.31
8937.17  1.90   0.32
8939.23  1.96   0.31
8941.29  2.16   0.31
8943.35  2.31   0.52
8945.41  2.56   0.75
8947.46  2.88   0.64
8949.53  2.78   0.34
8951.59  2.41   0.28
8953.65  2.13   0.28
8955.71  1.51   0.31
8957.77  1.09   0.69
8959.83  1.36   1.21
8961.90  2.03   1.05
8963.96  2.43   0.50
8966.03  2.31   0.30
8968.09  2.27   0.29
8970.16  2.36   0.30
8972.22  2.30   0.32
8974.29  2.16   0.33
8976.35  2.05   0.30
8978.42  1.95   0.29
8980.49  1.84   0.30
8982.56  1.67   0.33
8984.63  1.55   0.31
8986.70  1.65   0.34
8988.76  1.73   0.54
8990.83  1.83   0.73
8992.91  2.01   0.55
8994.98  2.25   0.36
8997.05  2.33   0.33
8999.12  1.72   0.34
9001.19  1.17   0.61
9003.26  1.33   1.01
9005.34  1.82   0.76
9007.41  2.02   0.36
9009.49  1.65   0.27
9011.56  1.32   0.27
9013.64  1.29   0.27
9015.71  1.20   0.26
9017.79  0.94   0.26
9019.86  0.77   0.26
9021.94  0.83   0.28
9024.02  0.88   0.29
9026.10  0.77   0.27
9028.18  0.70   0.26
9030.26  0.83   0.29
9032.33  0.97   0.29
9034.41  1.08   0.28
9036.50  1.12   0.29
9038.58  1.08   0.40
9040.66  1.15   0.50
9042.74  1.17   0.38
9044.82  1.04   0.29
9046.90  0.87   0.29
9048.99  0.85   0.38
9051.07  1.08   0.58
9053.16  1.23   0.58
9055.24  0.92   0.36
9057.33  0.56   0.29
9059.41  0.77   0.29
9061.50  1.20   0.29
9063.59  1.45   0.29
9065.67  1.47   0.32
9067.76  1.28   0.31
9069.85  1.01   0.31
9071.94  0.88   0.33
9074.02  0.85   0.31
9076.12  0.83   0.28
9078.20  0.80   0.26
9080.30  0.90   0.27
9082.39  1.01   0.29
9084.48  0.94   0.28
9086.57  0.71   0.28
9088.66  0.55   0.28
9090.76  0.49   0.28
9092.85  0.38   0.33
9094.94  0.41   0.40
9097.04  0.62   0.36
9099.13  0.87   0.29
9101.23  0.93   0.31
9103.32  0.89   0.41
9105.42  0.90   0.48
9107.52  0.97   0.38
9109.61  0.85   0.29
9111.71  0.53   0.26
9113.81  0.37   0.26
9115.91  0.40   0.25
9118.01  0.57   0.26
9120.11  0.71   0.27
9122.21  0.72   0.26
9124.31  0.74   0.26
9126.41  0.69   0.25
9128.51  0.50   0.25
9130.61  0.39   0.26
9132.72  0.45   0.27
9134.82  0.61   0.27
9136.92  0.78   0.29
9139.03  0.82   0.30
9141.13  0.67   0.27
9143.24  0.60   0.27
9145.34  0.67   0.28
9147.45  0.70   0.27
9149.56  0.79   0.28
9151.66  0.80   0.32
9153.77  0.66   0.40
9155.88  0.60   0.42
9157.99  0.67   0.35
9160.10  0.57   0.34
9162.21  0.29   0.38
9164.31  0.15   0.38
9166.42  0.28   0.31
9168.54  0.38   0.27
9170.65  0.39   0.27
9172.76  0.47   0.27
9174.87  0.54   0.28
9176.98  0.56   0.29
9179.10  0.54   0.28
9181.21  0.47   0.27
9183.33  0.48   0.27
9185.44  0.48   0.27
9187.56  0.46   0.28
9189.67  0.50   0.28
9191.79  0.40   0.27
9193.90  0.25   0.27
9196.02  0.28   0.28
9198.14  0.37   0.28
9200.26  0.38   0.27
9202.38  0.43   0.28
9204.50  0.52   0.27
9206.62  0.58   0.28
9208.74  0.53   0.27
9210.86  0.53   0.27
9212.98  0.57   0.27
9215.10  0.43   0.27
9217.22  0.22   0.32
9219.34  0.23   0.35
9221.47  0.44   0.31
9223.59  0.65   0.30
9225.71  0.78   0.36
9227.84  1.00   0.39
9229.96  1.21   0.34
9232.09  1.21   0.30
9234.22  1.07   0.27
9236.34  0.95   0.27
9238.47  0.86   0.27
9240.60  0.82   0.26
9242.73  0.86   0.27
9244.85  0.85   0.27
9246.98  0.71   0.27
9249.11  0.59   0.28
9251.24  0.64   0.31
9253.37  0.74   0.31
9255.50  0.68   0.30
9257.63  0.49   0.27
9259.77  0.43   0.26
9261.90  0.52   0.27
9264.03  0.55   0.29
9266.16  0.45   0.28
9268.30  0.40   0.27
9270.43  0.47   0.26
9272.57  0.57   0.26
9274.70  0.66   0.26
9276.84  0.68   0.27
9278.98  0.61   0.27
9281.11  0.56   0.27
9283.25  0.57   0.28
9285.39  0.54   0.28
9287.53  0.48   0.34
9289.66  0.50   0.37
9291.80  0.42   0.33
9293.94  0.21   0.33
9296.08  0.04   0.38
9298.22  0.02   0.36
