	Wave (A)	FluxDens(1d-15)   Err
       5856.0000       10.753025     0.095005858
       5856.4900       10.753025     0.095005858
       5856.9800       10.951663     0.096082714
       5857.4700       10.898015     0.096016900
       5857.9600       10.977891     0.096410406
       5858.4500       10.920633     0.096084039
       5858.9400       10.827419     0.095453416
       5859.4300       10.902064     0.095757446
       5859.9200       10.890173     0.095970300
       5860.4100       10.876502     0.095872628
       5860.9000       10.910228     0.095766136
       5861.3900       10.915269     0.095883218
       5861.8800       10.823338     0.095707843
       5862.3700       10.911888     0.096238016
       5862.8600       10.898785     0.096060959
       5863.3500       10.846501     0.095727696
       5863.8400       10.907391     0.095989206
       5864.3300       10.901145     0.096179777
       5864.8200       10.960230     0.096668439
       5865.3100       10.996257     0.096940372
       5865.8000       11.085069     0.097281234
       5866.2900       11.112970     0.097265887
       5866.7800       11.008536     0.097204938
       5867.2700       10.917644     0.097038955
       5867.7600       10.905727     0.096738150
       5868.2500       11.051027     0.096987021
       5868.7400       11.091245     0.097139178
       5869.2300       11.000411     0.096712519
       5869.7200       11.024222     0.096699499
       5870.2100       11.102860     0.097107236
       5870.7000       11.023348     0.096709296
       5871.1900       11.004156     0.096458837
       5871.6800       11.045963     0.096985730
       5872.1700       11.111640     0.097394505
       5872.6600       11.025005     0.096645639
       5873.1500       10.915679     0.096088780
       5873.6400       11.082990     0.097013056
       5874.1300       11.159594     0.097440790
       5874.6200       11.123780     0.097445560
       5875.1100       11.191894     0.098092040
       5875.6000       11.241390     0.098274993
       5876.0900       11.159225     0.097599711
       5876.5800       11.044567     0.096947850
       5877.0700       11.115552     0.097198511
       5877.5600       11.146928     0.097134314
       5878.0500       10.999389     0.096261208
       5878.5400       10.988377     0.096411620
       5879.0300       11.102393     0.097019376
       5879.5200       11.097908     0.096772331
       5880.0100       11.027306     0.096345687
       5880.5000       11.089237     0.096668029
       5880.9900       11.026097     0.096269752
       5881.4800       10.879709     0.095467266
       5881.9700       10.958831     0.095946091
       5882.4600       11.007493     0.096191305
       5882.9500       11.020502     0.096213648
       5883.4400       11.068734     0.096424411
       5883.9300       11.025913     0.096080784
       5884.4200       11.068198     0.096143397
       5884.9100       11.120677     0.096648126
       5885.4000       10.988658     0.096182550
       5885.8900       10.972108     0.096033571
       5886.3800       10.964962     0.096224859
       5886.8700       11.013904     0.096774635
       5887.3600       11.015576     0.096978934
       5887.8500       10.933433     0.096490595
       5888.3400       10.939924     0.097950427
       5888.8300       10.938213      0.10260033
       5889.3200       10.908372      0.10644892
       5889.8100       10.727240      0.10430478
       5890.3000       10.762776      0.10057817
       5890.7900       10.814442     0.098605078
       5891.2800       10.863023     0.098290986
       5891.7700       10.970368     0.098333534
       5892.2600       10.908020     0.097376688
       5892.7500       11.042028     0.097170958
       5893.2400       11.215225     0.097714659
       5893.7300       11.273259     0.097865499
       5894.2200       11.193922     0.097545833
       5894.7100       11.122761     0.099452083
       5895.2000       11.190877      0.10260406
       5895.6900       11.138013      0.10221863
       5896.1800       10.961457     0.099084590
       5896.6700       11.016078     0.097780321
       5897.1600       11.115549     0.097917479
       5897.6500       11.161440     0.097748587
       5898.1400       11.130869     0.096744472
       5898.6300       11.104618     0.096354662
       5899.1200       11.172521     0.096805327
       5899.6100       11.234763     0.096927442
       5900.1000       11.362228     0.097181460
       5900.5900       11.335447     0.096771444
       5901.0800       11.199662     0.096098811
       5901.5700       11.334929     0.096792805
       5902.0600       11.523336     0.097389830
       5902.5500       11.510526     0.097007607
       5903.0400       11.503315     0.096830487
       5903.5300       11.624804     0.097165555
       5904.0200       11.679920     0.097316178
       5904.5100       11.824982     0.097915513
       5905.0000       11.923549     0.098332891
       5905.4900       12.002163     0.098703666
       5905.9800       12.237262     0.099724130
       5906.4700       12.556629      0.10115561
       5906.9600       12.956804      0.10286924
       5907.4500       13.455964      0.10458177
       5907.9400       14.084691      0.10663401
       5908.4300       14.843162      0.10943452
       5908.9200       15.448374      0.11167562
       5909.4100       15.855476      0.11322323
       5909.9000       16.046547      0.11390632
       5910.3900       16.074888      0.11356228
       5910.8800       15.980463      0.11294005
       5911.3700       15.490230      0.11112576
       5911.8600       14.753741      0.10841486
       5912.3500       14.024260      0.10577567
       5912.8400       13.418555      0.10340996
       5913.3300       12.813115      0.10110880
       5913.8200       12.375456      0.10004428
       5914.3100       12.307399      0.10069307
       5914.8000       12.233707      0.10057762
       5915.2900       11.955613     0.098675292
       5915.7800       11.743061     0.097419410
       5916.2700       11.721811     0.097522968
       5916.7600       11.680150     0.097251270
       5917.2500       11.567443     0.096807893
       5917.7400       11.448531     0.096472667
       5918.2300       11.448089     0.096654531
       5918.7200       11.593392     0.097445006
       5919.2100       11.522471     0.096865594
       5919.7000       11.369265     0.095954367
       5920.1900       11.408527     0.096198995
       5920.6800       11.494753     0.096513490
       5921.1700       11.331056     0.095484492
       5921.6600       11.175998     0.094733096
       5922.1500       11.333317     0.095816068
       5922.6400       11.402871     0.096413218
       5923.1300       11.390666     0.096373216
       5923.6200       11.316509     0.096128116
       5924.1100       11.189261     0.095561938
       5924.6000       11.184945     0.095223295
       5925.0900       11.313911     0.095532757
       5925.5800       11.426171     0.095929355
       5926.0700       11.332100     0.095256299
       5926.5600       11.129670     0.094159942
       5927.0500       10.992756     0.093601538
       5927.5400       10.963845     0.093496391
       5928.0300       10.987179     0.093580386
       5928.5200       11.004519     0.093793255
       5929.0100       11.076274     0.094318703
       5929.5000       11.151637     0.094467982
       5929.9900       11.074196     0.094104479
       5930.4800       11.042057     0.094038727
       5930.9700       11.045464     0.093996327
       5931.4600       11.020169     0.094115465
       5931.9500       10.923574     0.094497969
       5932.4400       10.967668     0.095171553
       5932.9300       10.972012     0.094658235
       5933.4200       10.858998     0.093819925
       5933.9100       10.760919     0.093185148
       5934.4000       10.747654     0.092869455
       5934.8900       10.718918     0.092483686
       5935.3800       10.729922     0.092397031
       5935.8700       10.706059     0.092427656
       5936.3600       10.667872     0.092344556
       5936.8500       10.754413     0.092620325
       5937.3400       10.729220     0.092479666
       5937.8300       10.754440     0.092588375
       5938.3200       10.785525     0.092705040
       5938.8100       10.724207     0.092494680
       5939.3000       10.663201     0.092387125
       5939.7900       10.540117     0.092020710
       5940.2800       10.688631     0.092850441
       5940.7700       10.867745     0.094360031
       5941.2600       10.848999     0.094695065
       5941.7500       10.762612     0.094114999
       5942.2400       10.693454     0.093418559
       5942.7300       10.718226     0.093369897
       5943.2200       10.688727     0.092838667
       5943.7100       10.583310     0.092378561
       5944.2000       10.733147     0.093707363
       5944.6900       10.808263     0.094452947
       5945.1800       10.719693     0.093882841
       5945.6700       10.689679     0.093664521
       5946.1600       10.583159     0.092855590
       5946.6500       10.600634     0.092508406
       5947.1400       10.594002     0.092481113
       5947.6300       10.574952     0.092712785
       5948.1200       10.629776     0.092846211
       5948.6100       10.583519     0.092391868
       5949.1000       10.427282     0.091388121
       5949.5900       10.396572     0.091478005
       5950.0800       10.453044     0.091922657
       5950.5700       10.458985     0.091474780
       5951.0600       10.401954     0.090997028
       5951.5500       10.427589     0.091309477
       5952.0400       10.379340     0.091403216
       5952.5300       10.544160     0.092340989
       5953.0200       10.564321     0.092731592
       5953.5100       10.421437     0.092121782
       5954.0000       10.411856     0.091608738
       5954.4900       10.362633     0.091070633
       5954.9800       10.423599     0.091221237
       5955.4700       10.516166     0.091696711
       5955.9600       10.391975     0.091104767
       5956.4500       10.436803     0.091299666
       5956.9400       10.297016     0.090918636
       5957.4300       10.379856     0.091694832
       5957.9200       10.340222     0.091364131
       5958.4100       10.349078     0.090819178
       5958.9000       10.315411     0.090502305
       5959.3900       10.361362     0.090676581
       5959.8800       10.297154     0.090482622
       5960.3700       10.327420     0.090706772
       5960.8600       10.453993     0.091228032
       5961.3500       10.415596     0.091144939
       5961.8400       10.397507     0.091174818
       5962.3300       10.423836     0.091221233
       5962.8200       10.434396     0.091330491
       5963.3100       10.468571     0.091412812
       5963.8000       10.411767     0.091255413
       5964.2900       10.449322     0.091376191
       5964.7800       10.442112     0.091104804
       5965.2700       10.270458     0.090195545
       5965.7600       10.230385     0.090019195
       5966.2500       10.192546     0.090095379
       5966.7400       10.292666     0.090770986
       5967.2300       10.349710     0.091165972
       5967.7200       10.236114     0.090709719
       5968.2100       10.238313     0.090623263
       5968.7000       10.333504     0.091339725
       5969.1900       10.337325     0.091298923
       5969.6800       10.199175     0.090235266
       5970.1700       10.146030     0.090376857
       5970.6600       10.238497     0.090965137
       5971.1500       10.383033     0.091447603
       5971.6400       10.411608     0.091785368
       5972.1300       10.286837     0.090996715
       5972.6200       10.291258     0.090666397
       5973.1100       10.244659     0.090263570
       5973.6000       10.223228     0.090092656
       5974.0900       10.294123     0.090504159
       5974.5800       10.132032     0.089864157
       5975.0700       10.090181     0.089632888
       5975.5600       10.180114     0.090215202
       5976.0500       10.234014     0.090845969
       5976.5400       10.390085     0.091806728
       5977.0300       10.283712     0.091078603
       5977.5200       10.217872     0.090331488
       5978.0100       10.328548     0.090586123
       5978.5000       10.195491     0.089947740
       5978.9900       10.189380     0.089961186
       5979.4800       10.286772     0.090610071
       5979.9700       10.279930     0.090515705
       5980.4600       10.166722     0.089785567
       5980.9500       10.093084     0.089619647
       5981.4400       10.214027     0.090114532
       5981.9300       10.248875     0.090147501
       5982.4200       10.205882     0.090013153
       5982.9100       10.232869     0.090198980
       5983.4000       10.262460     0.090343578
       5983.8900       10.128544     0.089543489
       5984.3800       10.062003     0.089484076
       5984.8700       10.215776     0.090337807
       5985.3600       10.204981     0.090149599
       5985.8500       10.225205     0.090115334
       5986.3400       10.177546     0.089745788
       5986.8300       10.120297     0.089555467
       5987.3200       10.133858     0.089760350
       5987.8100       10.169859     0.089971914
       5988.3000       10.260565     0.090627283
       5988.7900       10.162509     0.090095164
       5989.2800       10.093582     0.089403844
       5989.7700       10.142328     0.090008131
       5990.2600       10.190743     0.090373551
       5990.7500       10.091833     0.089871227
       5991.2400       10.161263     0.090210298
       5991.7300       10.220422     0.090046697
       5992.2200       10.196901     0.089949856
       5992.7100       10.150047     0.089930825
       5993.2000       10.165251     0.090075388
       5993.6900       10.160826     0.090119186
       5994.1800       10.189059     0.090046373
       5994.6700       10.155850     0.090019180
       5995.1600       10.135845     0.089717298
       5995.6500       10.164940     0.089794658
       5996.1400       10.124861     0.089713924
       5996.6300       9.9764617     0.089060361
       5997.1200       10.138268     0.090051744
       5997.6100       10.147876     0.090318314
       5998.1000       10.064744     0.089746835
       5998.5900       9.9226122     0.089055668
       5999.0800       9.9532724     0.089054444
       5999.5700       9.9222483     0.088645606
       6000.0600       9.8323966     0.088136877
       6000.5500       9.9627692     0.088839635
       6001.0400       9.9987926     0.089066430
       6001.5300       9.9505852     0.088793868
       6002.0200       9.9782334     0.088884894
       6002.5100       9.9446813     0.088824340
       6003.0000       9.9247136     0.089028376
       6003.4900       10.021607     0.089859761
       6003.9800       9.9810423     0.089379949
       6004.4700       9.9401061     0.088672561
       6004.9600       10.131878     0.089650228
       6005.4500       10.164343     0.089874974
       6005.9400       10.054186     0.089379043
       6006.4300       9.9185723     0.088708282
       6006.9200       9.8783177     0.088352249
       6007.4100       9.9035675     0.088410733
       6007.9000       10.018481     0.088952606
       6008.3900       10.132238     0.089645184
       6008.8800       10.064837     0.089443894
       6009.3700       10.004391     0.089426584
       6009.8600       10.029218     0.089535691
       6010.3500       10.021372     0.089256099
       6010.8400       10.016510     0.089296050
       6011.3300       9.9355287     0.088711258
       6011.8200       9.9297396     0.088418382
       6012.3100       10.036708     0.088872743
       6012.8000       10.069493     0.089152473
       6013.2900       10.148367     0.089670863
       6013.7800       10.186060     0.089660404
       6014.2700       10.133921     0.089311984
       6014.7600       10.190201     0.089796700
       6015.2500       10.053678     0.089239933
       6015.7400       9.8952807     0.088380532
       6016.2300       9.9777589     0.088599656
       6016.7200       9.9985935     0.088589244
       6017.2100       9.9172430     0.088294289
       6017.7000       9.9603169     0.088640249
       6018.1900       10.006109     0.088966445
       6018.6800       9.9904881     0.088921889
       6019.1700       10.019589     0.089145013
       6019.6600       10.001036     0.089091373
       6020.1500       9.9574840     0.088733027
       6020.6400       9.9508632     0.088513766
       6021.1300       9.9635007     0.088481058
       6021.6200       9.9395276     0.088722141
       6022.1100       9.9255599     0.088960602
       6022.6000       9.9510189     0.088802047
       6023.0900       9.9343462     0.088447971
       6023.5800       9.7779885     0.087684137
       6024.0700       9.7461147     0.087527611
       6024.5600       9.8814475     0.088132020
       6025.0500       9.8644038     0.088155414
       6025.5400       9.8364947     0.088211206
       6026.0300       9.8802631     0.088338161
       6026.5200       9.9110552     0.088346413
       6027.0100       9.8996363     0.088406766
       6027.5000       9.8795118     0.088319024
       6027.9900       9.8354226     0.088026270
       6028.4800       9.8102956     0.087833467
       6028.9700       9.7059264     0.087321897
       6029.4600       9.6851232     0.087291186
       6029.9500       9.8712304     0.088218099
       6030.4400       9.8315144     0.087932241
       6030.9300       9.7668526     0.087693033
       6031.4200       9.7563440     0.087892771
       6031.9100       9.7280026     0.087733597
       6032.4000       9.7440353     0.087818122
       6032.8900       9.7801109     0.088077135
       6033.3800       9.7069625     0.087604144
       6033.8700       9.6578127     0.087379869
       6034.3600       9.7258904     0.087726966
       6034.8500       9.7475289     0.087575702
       6035.3400       9.7695123     0.087540760
       6035.8300       9.6469016     0.087066105
       6036.3200       9.6069401     0.086959174
       6036.8100       9.7619848     0.087509015
       6037.3000       9.8194745     0.087919918
       6037.7900       9.7557947     0.088131785
       6038.2800       9.7837448     0.088254754
       6038.7700       9.7757036     0.087679707
       6039.2600       9.7117855     0.087311943
       6039.7500       9.7233508     0.087665394
       6040.2400       9.7308372     0.087896082
       6040.7300       9.7110027     0.087650751
       6041.2200       9.6382949     0.087140224
       6041.7100       9.6923834     0.087212309
       6042.2000       9.7362057     0.087384656
       6042.6900       9.7620778     0.087770678
       6043.1800       9.8856582     0.088613727
       6043.6700       9.8146117     0.088205318
       6044.1600       9.7251701     0.087551106
       6044.6500       9.6320857     0.086978765
       6045.1400       9.6628387     0.087123979
       6045.6300       9.6944771     0.087334975
       6046.1200       9.6792265     0.087301744
       6046.6100       9.6809108     0.087379308
       6047.1000       9.6646139     0.087317852
       6047.5900       9.6088891     0.087140714
       6048.0800       9.6984788     0.087580205
       6048.5700       9.7096085     0.087757154
       6049.0600       9.7279050     0.087758744
       6049.5500       9.7508916     0.087456449
       6050.0400       9.7262705     0.087331919
       6050.5300       9.7173426     0.087278046
       6051.0200       9.6959329     0.087207384
       6051.5100       9.6155681     0.086906040
       6052.0000       9.5591459     0.086623041
       6052.4900       9.5868957     0.086745131
       6052.9800       9.4908279     0.086344002
       6053.4700       9.5480891     0.086609854
       6053.9600       9.6003639     0.086847745
       6054.4500       9.5755905     0.086711706
       6054.9400       9.6107579     0.086866701
       6055.4300       9.5844960     0.086715764
       6055.9200       9.5729293     0.086667402
       6056.4100       9.6411861     0.086958827
       6056.9000       9.6276761     0.086895518
       6057.3900       9.5632185     0.086592489
       6057.8800       9.5459509     0.086539043
       6058.3700       9.5739891     0.086596031
       6058.8600       9.5643527     0.086522933
       6059.3500       9.6805424     0.087092709
       6059.8400       9.6467454     0.086963152
       6060.3300       9.4730651     0.086186839
       6060.8200       9.4596537     0.086116071
       6061.3100       9.4911355     0.086348479
       6061.8000       9.5363965     0.086578855
       6062.2900       9.6022238     0.086891799
       6062.7800       9.5641214     0.086613809
       6063.2700       9.6373217     0.086948965
       6063.7600       9.6206037     0.086792383
       6064.2500       9.6476061     0.086909808
       6064.7400       9.6823249     0.087048349
       6065.2300       9.6334266     0.086814927
       6065.7200       9.5287725     0.086440323
       6066.2100       9.5640525     0.086570259
       6066.7000       9.5700536     0.086635528
       6067.1900       9.5538386     0.086557334
       6067.6800       9.4855221     0.086218893
       6068.1700       9.6485991     0.086828338
       6068.6600       9.5466260     0.086357421
       6069.1500       9.4730177     0.086141337
       6069.6400       9.6061359     0.086754107
       6070.1300       9.5383182     0.086441707
       6070.6200       9.5787900     0.086626618
       6071.1100       9.6167018     0.086720201
       6071.6000       9.5797612     0.086568405
       6072.0900       9.5487294     0.086463184
       6072.5800       9.6870271     0.087035578
       6073.0700       9.5826424     0.086562280
       6073.5600       9.4106715     0.085888518
       6074.0500       9.4365452     0.085965914
       6074.5400       9.5903567     0.086610405
       6075.0300       9.5968092     0.086674993
       6075.5200       9.4239592     0.085922145
       6076.0100       9.4374567     0.085925083
       6076.5000       9.4416440     0.085946814
       6076.9900       9.3935273     0.085785965
       6077.4800       9.4549171     0.086012292
       6077.9700       9.5417375     0.086333739
       6078.4600       9.4511956     0.086023963
       6078.9500       9.4501958     0.085973977
       6079.4400       9.4030132     0.085745408
       6079.9300       9.3529956     0.085599677
       6080.4200       9.4672654     0.086045006
       6080.9100       9.4583279     0.085975836
       6081.4000       9.4651814     0.085971748
       6081.8900       9.5757851     0.086474764
       6082.3800       9.5755577     0.086548068
       6082.8700       9.4703747     0.086063796
       6083.3600       9.4329248     0.085895371
       6083.8500       9.4042842     0.085763034
       6084.3400       9.5048466     0.086129677
       6084.8300       9.5016750     0.086137874
       6085.3200       9.3465075     0.085546884
       6085.8100       9.3567035     0.085602701
       6086.3000       9.2663700     0.085197194
       6086.7900       9.3176738     0.085363964
       6087.2800       9.5231781     0.086191022
       6087.7700       9.4583069     0.085890410
       6088.2600       9.4289841     0.085799068
       6088.7500       9.3789758     0.085654908
       6089.2400       9.2802606     0.085226578
       6089.7300       9.3866900     0.085694121
       6090.2200       9.3954470     0.085676357
       6090.7100       9.3842704     0.085600786
       6091.2000       9.4184605     0.085723320
       6091.6900       9.3667044     0.085443696
       6092.1800       9.3564727     0.085517169
       6092.6700       9.4483619     0.085943875
       6093.1600       9.4263988     0.085883898
       6093.6500       9.4668116     0.086086847
       6094.1400       9.3105807     0.085392171
       6094.6300       9.2247120     0.084999501
       6095.1200       9.2607375     0.085132765
       6095.6100       9.3768454     0.085656870
       6096.1000       9.4106887     0.085742199
       6096.5900       9.3626775     0.085508198
       6097.0800       9.2916053     0.085270673
       6097.5700       9.2949444     0.085319620
       6098.0600       9.4225472     0.085857551
       6098.5500       9.4620665     0.086003964
       6099.0400       9.4615076     0.085968319
       6099.5300       9.4075525     0.085745432
       6100.0200       9.2434373     0.085042016
       6100.5100       9.3091295     0.085356636
       6101.0000       9.4860804     0.086105827
       6101.4900       9.3528127     0.085517584
       6101.9800       9.2627777     0.085137610
       6102.4700       9.3148097     0.085395648
       6102.9600       9.3348337     0.085461435
       6103.4500       9.3479519     0.085585461
       6103.9400       9.2517091     0.085150490
       6104.4300       9.2826088     0.085286317
       6104.9200       9.2770561     0.085159206
       6105.4100       9.2662859     0.085177023
       6105.9000       9.2422741     0.085107866
       6106.3900       9.2210286     0.085036401
       6106.8800       9.2340273     0.085036354
       6107.3700       9.1991405     0.084873260
       6107.8600       9.2342060     0.085056287
       6108.3500       9.3096099     0.085416174
       6108.8400       9.2318297     0.085088689
       6109.3300       9.2766946     0.085277180
       6109.8200       9.2459224     0.085141136
       6110.3100       9.1796611     0.084844026
       6110.8000       9.1969591     0.084974611
       6111.2900       9.2394675     0.085182766
       6111.7800       9.1472332     0.084791043
       6112.2700       9.0843245     0.084597981
       6112.7600       9.2485607     0.085355410
       6113.2500       9.3276032     0.085671004
       6113.7400       9.1392654     0.084725944
       6114.2300       9.0984376     0.084514228
       6114.7200       9.1920299     0.084923700
       6115.2100       9.2306446     0.085031504
       6115.7000       9.2171828     0.084984784
       6116.1900       9.2121697     0.084839819
       6116.6800       9.3014563     0.085222083
       6117.1700       9.2822628     0.085170532
       6117.6600       9.1719569     0.084668458
       6118.1500       9.1362774     0.084479285
       6118.6400       9.1441150     0.084490843
       6119.1300       9.1381314     0.084448196
       6119.6200       9.1048162     0.084247014
       6120.1100       9.1648405     0.084414573
       6120.6000       9.1674152     0.084436443
       6121.0900       9.2538102     0.084861384
       6121.5800       9.1819671     0.084505209
       6122.0700       9.0918084     0.084138336
       6122.5600       9.1488745     0.084388763
       6123.0500       9.1393930     0.084295675
       6123.5400       9.1412858     0.084263811
       6124.0300       9.1162949     0.084180564
       6124.5200       9.0853673     0.084051453
       6125.0100       9.2182459     0.084618145
       6125.5000       9.2450613     0.084703473
       6125.9900       9.1377627     0.084251280
       6126.4800       9.0440754     0.083812706
       6126.9700       9.1138088     0.084077383
       6127.4600       9.3158001     0.084990847
       6127.9500       9.2632098     0.084741210
       6128.4400       9.1092885     0.084090067
       6128.9300       9.1055106     0.084066449
       6129.4200       9.0999908     0.083998790
       6129.9100       9.0852354     0.083949212
       6130.4000       9.1433448     0.084171415
       6130.8900       9.1321322     0.084091642
       6131.3800       9.0635570     0.083823799
       6131.8700       9.0939394     0.083962251
       6132.3600       9.1387987     0.084133916
       6132.8500       9.1527512     0.084169307
       6133.3400       9.1512756     0.084192659
       6133.8300       9.0924917     0.083967210
       6134.3200       9.1310765     0.084131950
       6134.8100       9.1443343     0.084141731
       6135.3000       9.0296673     0.083661368
       6135.7900       9.0672908     0.083877808
       6136.2800       9.1297231     0.084147348
       6136.7700       9.0655904     0.083866476
       6137.2600       9.0719934     0.083843480
       6137.7500       9.0803652     0.083819479
       6138.2400       9.0732717     0.083878238
       6138.7300       9.0937106     0.084082575
       6139.2200       8.9818790     0.083589935
       6139.7100       8.9206845     0.083256378
       6140.2000       9.0393656     0.083715510
       6140.6900       9.1035160     0.083910662
       6141.1800       9.1449033     0.084045339
       6141.6700       9.1524283     0.084040135
       6142.1600       9.0496897     0.083625882
       6142.6500       8.9835677     0.083466731
       6143.1400       9.0325671     0.083760905
       6143.6300       9.1190295     0.084180789
       6144.1200       9.1059818     0.084117054
       6144.6100       9.0397028     0.083754989
       6145.1000       9.0656578     0.083777821
       6145.5900       9.0162286     0.083505618
       6146.0800       9.0204060     0.083528232
       6146.5700       9.0870562     0.083789583
       6147.0600       9.1226086     0.083903630
       6147.5500       9.1265607     0.083926677
       6148.0400       9.0573076     0.083573554
       6148.5300       9.0041258     0.083322817
       6149.0200       8.8878355     0.082871137
       6149.5100       8.9272098     0.083068379
       6150.0000       8.9973027     0.083413929
       6150.4900       8.9359649     0.083171160
       6150.9800       8.9651356     0.083295851
       6151.4700       9.0674166     0.083688833
       6151.9600       8.9953546     0.083340496
       6152.4500       8.9194322     0.083089469
       6152.9400       8.9719949     0.083342955
       6153.4300       8.9668420     0.083349049
       6153.9200       8.9739958     0.083528053
       6154.4100       8.9777594     0.083600824
       6154.9000       8.9344625     0.083317007
       6155.3900       8.9274702     0.083124827
       6155.8800       8.9321985     0.083083832
       6156.3700       8.9552703     0.083216320
       6156.8600       8.9561556     0.083170831
       6157.3500       8.9511258     0.083124659
       6157.8400       8.9797767     0.083256664
       6158.3300       8.9204393     0.082985996
       6158.8200       8.9008984     0.082972158
       6159.3100       8.9140207     0.083110043
       6159.8000       8.8375666     0.082909634
       6160.2900       8.8895892     0.083307248
       6160.7800       8.9465514     0.083633599
       6161.2700       8.9348199     0.083510605
       6161.7600       8.9924045     0.083576642
       6162.2500       8.9960766     0.083477884
       6162.7400       8.9579015     0.083248001
       6163.2300       8.8639942     0.082807875
       6163.7200       8.8498274     0.082652879
       6164.2100       8.9606886     0.083125766
       6164.7000       8.9065964     0.082920047
       6165.1900       8.8398272     0.082558323
       6165.6800       8.8993395     0.082858589
       6166.1700       8.7990469     0.082464766
       6166.6600       8.8066443     0.082420360
       6167.1500       8.8816230     0.082700990
       6167.6400       8.8866935     0.082698522
       6168.1300       8.7911414     0.082277262
       6168.6200       8.8757446     0.082712701
       6169.1100       8.9797025     0.083246103
       6169.6000       8.9686982     0.083382762
       6170.0900       8.8355210     0.082979038
       6170.5800       8.8154601     0.082829532
       6171.0700       8.8985467     0.082980589
       6171.5600       8.8936793     0.082796200
       6172.0500       8.9014204     0.082799775
       6172.5400       8.8996930     0.082767241
       6173.0300       8.9492754     0.083001909
       6173.5200       9.0141449     0.083265401
       6174.0100       8.9462045     0.082913777
       6174.5000       8.8993273     0.082753253
       6174.9900       8.8954628     0.082823207
       6175.4800       8.8697675     0.082817042
       6175.9700       8.8311048     0.082671014
       6176.4600       8.8726660     0.082741324
       6176.9500       8.8282682     0.082464885
       6177.4400       8.9053018     0.082779022
       6177.9300       9.0303523     0.083291314
       6178.4200       8.9583771     0.083009272
       6178.9100       8.9047949     0.082730619
       6179.4000       8.9066523     0.082812560
       6179.8900       8.8994926     0.082707022
       6180.3800       8.7709013     0.082173924
       6180.8700       8.8847647     0.082708971
       6181.3600       8.9897853     0.083147697
       6181.8500       8.9230678     0.082835421
       6182.3400       8.8836383     0.082695377
       6182.8300       8.9672589     0.083076222
       6183.3200       8.8985510     0.082855904
       6183.8100       8.7860294     0.082326202
       6184.3000       8.8408136     0.082583611
       6184.7900       8.7801610     0.082239424
       6185.2800       8.7880131     0.082303932
       6185.7700       8.8484838     0.082541761
       6186.2600       8.8990026     0.082751154
       6186.7500       8.8767263     0.082673746
       6187.2400       8.7510784     0.082155955
       6187.7300       8.8085171     0.082393344
       6188.2200       8.8131800     0.082423712
       6188.7100       8.7530566     0.082235961
       6189.2000       8.7599328     0.082197827
       6189.6900       8.7722161     0.082212837
       6190.1800       8.7349241     0.082002375
       6190.6700       8.7349381     0.082081430
       6191.1600       8.8216019     0.082521444
       6191.6500       8.8915743     0.082786297
       6192.1400       8.8886171     0.082876781
       6192.6300       8.7472575     0.082250205
       6193.1200       8.8060395     0.082442987
       6193.6100       8.9001591     0.082864962
       6194.1000       8.8547938     0.082578629
       6194.5900       8.7820152     0.082211024
       6195.0800       8.7371779     0.082066729
       6195.5700       8.6462315     0.081607514
       6196.0600       8.8316610     0.082494372
       6196.5500       8.8426800     0.082536638
       6197.0400       8.8669341     0.082622234
       6197.5300       8.8920026     0.082767926
       6198.0200       8.8795202     0.082708373
       6198.5100       8.7506906     0.082080967
       6199.0000       8.7034586     0.081904128
       6199.4900       8.6530165     0.081767044
       6199.9800       8.7008698     0.081964183
       6200.4700       8.8113588     0.082363761
       6200.9600       8.7742361     0.082197635
       6201.4500       8.8001194     0.082496303
       6201.9400       8.8762813     0.083179219
       6202.4300       8.7459646     0.082647568
       6202.9200       8.7449000     0.082375471
       6203.4100       8.7385951     0.082220441
       6203.9000       8.7526775     0.082146372
       6204.3900       8.7492498     0.082100796
       6204.8800       8.7112644     0.081988690
       6205.3700       8.7493085     0.082105908
       6205.8600       8.7990695     0.082353072
       6206.3500       8.7421317     0.082080607
       6206.8400       8.8093370     0.082445149
       6207.3300       8.8123536     0.082503174
       6207.8200       8.7473805     0.082228529
       6208.3100       8.8354468     0.082612578
       6208.8000       8.7932471     0.082387099
       6209.2900       8.7525002     0.082242073
       6209.7800       8.7521657     0.082295689
       6210.2700       8.7345103     0.082295116
       6210.7600       8.7397019     0.082333435
       6211.2500       8.5996146     0.081595845
       6211.7400       8.7268955     0.082124063
       6212.2300       8.7327623     0.082325263
       6212.7200       8.6864249     0.082188230
       6213.2100       8.6461790     0.081808285
       6213.7000       8.6659462     0.081805081
       6214.1900       8.7807947     0.082311282
       6214.6800       8.8073866     0.082400195
       6215.1700       8.6934111     0.081872897
       6215.6600       8.6126203     0.081487646
       6216.1500       8.5153428     0.081192674
       6216.6400       8.6521176     0.081820300
       6217.1300       8.7081537     0.082011283
       6217.6200       8.5778273     0.081394627
       6218.1100       8.6961477     0.081910937
       6218.6000       8.7009193     0.081895014
       6219.0900       8.7594849     0.082170439
       6219.5800       8.5676960     0.081291949
       6220.0700       8.5986860     0.081503219
       6220.5600       8.5519334     0.081514788
       6221.0500       8.5922140     0.082044113
       6221.5400       8.6993113     0.082530220
       6222.0300       8.6346950     0.081966604
       6222.5200       8.5879650     0.081534891
       6223.0100       8.6887472     0.081911884
       6223.5000       8.6247810     0.081505312
       6223.9900       8.5524183     0.081226410
       6224.4800       8.5804843     0.081369837
       6224.9700       8.6440441     0.081668534
       6225.4600       8.5495993     0.081260404
       6225.9500       8.4967292     0.081025114
       6226.4400       8.6429480     0.081615943
       6226.9300       8.6159026     0.081462648
       6227.4200       8.5631062     0.081244166
       6227.9100       8.5391485     0.081149105
       6228.4000       8.5547076     0.081284142
       6228.8900       8.5183858     0.081154578
       6229.3800       8.5470024     0.081255132
       6229.8700       8.6351948     0.081654391
       6230.3600       8.6278311     0.081578456
       6230.8500       8.6231326     0.081537625
       6231.3400       8.6356048     0.081657484
       6231.8300       8.5801574     0.081427252
       6232.3200       8.5833904     0.081446855
       6232.8100       8.5644762     0.081509792
       6233.3000       8.6284091     0.082149855
       6233.7900       8.6409480     0.082514486
       6234.2800       8.5956861     0.082304204
       6234.7700       8.5661877     0.082430817
       6235.2600       8.5851258     0.083040240
       6235.7500       8.6037987     0.083070644
       6236.2400       8.5256840     0.082278561
       6236.7300       8.4746681     0.081694585
       6237.2200       8.4743365     0.081379180
       6237.7100       8.5492478     0.081470803
       6238.2000       8.6082645     0.081705377
       6238.6900       8.5157697     0.081374505
       6239.1800       8.4920508     0.081397702
       6239.6700       8.5191406     0.081686649
       6240.1600       8.5577114     0.081840517
       6240.6500       8.5411836     0.081608244
       6241.1400       8.4886571     0.081354310
       6241.6300       8.5840463     0.081759660
       6242.1200       8.6188047     0.081820052
       6242.6100       8.5831712     0.081732446
       6243.1000       8.5998392     0.081944536
       6243.5900       8.5425265     0.081598547
       6244.0800       8.5072198     0.081258960
       6244.5700       8.5292493     0.081255390
       6245.0600       8.4775591     0.080960125
       6245.5500       8.3764765     0.080474176
       6246.0400       8.3766938     0.080481730
       6246.5300       8.4406257     0.080842391
       6247.0200       8.5117214     0.081220853
       6247.5100       8.5002853     0.081139505
       6248.0000       8.4575475     0.080909937
       6248.4900       8.5028986     0.081102640
       6248.9800       8.4990219     0.081048598
       6249.4700       8.4680662     0.080913203
       6249.9600       8.5017982     0.081086990
       6250.4500       8.5424015     0.081249850
       6250.9400       8.4878856     0.081074152
       6251.4300       8.5400353     0.081477005
       6251.9200       8.5840912     0.081633979
       6252.4100       8.5187201     0.081155184
       6252.9000       8.5769082     0.081463017
       6253.3900       8.5098256     0.081329082
       6253.8800       8.3946593     0.080681973
       6254.3700       8.5446972     0.081256924
       6254.8600       8.6458261     0.081890669
       6255.3500       8.5717127     0.081752706
       6255.8400       8.5036910     0.081391800
       6256.3300       8.5197998     0.081659875
       6256.8200       8.4944621     0.082312238
       6257.3100       8.4292867     0.082790165
       6257.8000       8.4681264     0.082836166
       6258.2900       8.5196107     0.082164249
       6258.7800       8.4518144     0.081194450
       6259.2700       8.3174861     0.080339341
       6259.7600       8.3142323     0.080302761
       6260.2500       8.4339334     0.080936042
       6260.7400       8.5002562     0.081445241
       6261.2300       8.4375642     0.081361485
       6261.7200       8.4846896     0.081607674
       6262.2100       8.5155603     0.081684255
       6262.7000       8.3783261     0.080720114
       6263.1900       8.4188872     0.080807701
       6263.6800       8.5084509     0.081653586
       6264.1700       8.6019710     0.082674893
       6264.6600       8.6097572     0.082619541
       6265.1500       8.5593374     0.082040513
       6265.6400       8.6023579     0.082230614
       6266.1300       8.5246514     0.081637507
       6266.6200       8.4407858     0.080879696
       6267.1100       8.4130284     0.080766815
       6267.6000       8.4307245     0.081001047
       6268.0900       8.4337869     0.080854749
       6268.5800       8.3420420     0.081372747
       6269.0700       8.3742221     0.082621417
       6269.5600       8.5136771     0.082002242
       6270.0500       8.5224856     0.081462185
       6270.5400       8.4813802     0.081232892
       6271.0300       8.3779467     0.080535405
       6271.5200       8.3661750     0.080772393
       6272.0100       8.4268210     0.081346466
       6272.5000       8.2994059     0.080404854
       6272.9900       8.2908373     0.080134766
       6273.4800       8.3890142     0.080626936
       6273.9700       8.4217365     0.080878866
       6274.4600       8.4048459     0.080973901
       6274.9500       8.4100096     0.081400680
       6275.4400       8.5034857     0.082933051
       6275.9300       8.4780878     0.084689807
       6276.4200       8.3897656     0.086175693
       6276.9100       8.4036634     0.087013701
       6277.4000       8.3505773     0.086320524
       6277.8900       8.2597501     0.085084072
       6278.3800       8.2882479     0.084314240
       6278.8700       8.5163728     0.084955170
       6279.3600       8.5159678     0.084477368
       6279.8500       8.3392320     0.082954733
       6280.3400       8.3968006     0.083266320
       6280.8300       8.2780497     0.082402245
       6281.3200       8.1787993     0.081352481
       6281.8100       8.1588520     0.080980762
       6282.3000       8.2215570     0.081041060
       6282.7900       8.1999963     0.080524783
       6283.2800       8.1754647     0.080369545
       6283.7700       8.1888898     0.080384550
       6284.2600       8.3131506     0.081040529
       6284.7500       8.2753409     0.080617430
       6285.2400       8.3191963     0.080475014
       6285.7300       8.3212600     0.080494978
       6286.2200       8.0602481     0.079728209
       6286.7100       8.1172318     0.081252234
       6287.2000       8.3365434     0.082993113
       6287.6900       8.2093687     0.081266212
       6288.1800       8.1274973     0.079812843
       6288.6700       8.1036106     0.079938801
       6289.1600       8.1655723     0.080830734
       6289.6500       8.1223172     0.080537048
       6290.1400       8.2210726     0.080392865
       6290.6300       8.2252747     0.080191342
       6291.1200       8.1855664     0.080420754
       6291.6100       8.1250836     0.080772604
       6292.1000       8.1432166     0.081094158
       6292.5900       8.0639501     0.080147304
       6293.0800       8.0836049     0.079680999
       6293.5700       8.1130569     0.079746056
       6294.0600       8.1232886     0.080042510
       6294.5500       8.2818357     0.081700966
       6295.0400       8.1700369     0.081488623
       6295.5300       8.0568217     0.080519579
       6296.0200       8.0936161     0.079813132
       6296.5100       8.0993477     0.079586092
       6297.0000       8.1099292     0.080432510
       6297.4900       8.0980533     0.081069631
       6297.9800       8.0503901     0.081278867
       6298.4700       8.0912782     0.081499212
       6298.9600       8.1359417     0.082556671
       6299.4500       8.1790673     0.085833454
       6299.9400       7.8804299     0.085017790
       6300.4300       7.9945675     0.082776729
       6300.9200       8.1630563     0.081504688
       6301.4100       7.9288431     0.079694970
       6301.9000       7.9963970     0.079748460
       6302.3900       7.9728139     0.079378137
       6302.8800       7.9478432     0.078814643
       6303.3700       8.1185152     0.079838561
       6303.8600       8.1857630     0.080197489
       6304.3500       8.0417085     0.079454860
       6304.8400       8.1077629     0.080262262
       6305.3300       8.0955572     0.081166761
       6305.8200       8.0488504     0.081656888
       6306.3100       7.9403019     0.081462675
       6306.8000       7.9862914     0.080951375
       6307.2900       7.9827803     0.079779441
       6307.7800       7.9988272     0.078952967
       6308.2700       7.9975044     0.078837184
       6308.7600       7.9774327     0.078779016
       6309.2500       8.0427151     0.079678331
       6309.7400       7.9141614     0.079185610
       6310.2300       7.9708060     0.079355450
       6310.7200       8.0709201     0.079644812
       6311.2100       8.0028872     0.078792234
       6311.7000       8.0033201     0.078620034
       6312.1900       8.0826741     0.079120956
       6312.6800       7.9650889     0.078486834
       6313.1700       7.9505669     0.078667602
       6313.6600       7.9867993     0.079284047
       6314.1500       7.9282088     0.078937467
       6314.6400       7.9333094     0.078921214
       6315.1300       8.0548271     0.079488434
       6315.6200       7.9844953     0.079079260
       6316.1100       7.9256996     0.078653765
       6316.6000       7.8950761     0.078458677
       6317.0900       7.9130144     0.078537463
       6317.5800       8.0415982     0.079277869
       6318.0700       7.8660089     0.078041180
       6318.5600       7.8575107     0.077887904
       6319.0500       7.9154424     0.078207292
       6319.5400       7.8689020     0.077984127
       6320.0300       7.8337931     0.078056450
       6320.5200       7.9284566     0.078855816
       6321.0100       7.9675871     0.079401737
       6321.5000       7.8642252     0.078724808
       6321.9900       7.9887120     0.079026464
       6322.4800       7.9320269     0.078367821
       6322.9700       7.9806596     0.078976873
       6323.4600       7.9341546     0.078759987
       6323.9500       7.8794712     0.078197639
       6324.4400       7.7798155     0.077478367
       6324.9300       7.8187883     0.077534289
       6325.4200       7.8671745     0.077907983
       6325.9100       7.9817080     0.078601458
       6326.4000       7.9023771     0.078116797
       6326.8900       7.9376351     0.078182202
       6327.3800       7.8850882     0.077934975
       6327.8700       7.8445074     0.077844739
       6328.3600       7.9218989     0.078582475
       6328.8500       7.9585542     0.079519636
       6329.3400       7.8594149     0.079873332
       6329.8300       7.9710366     0.080194128
       6330.3200       7.9313939     0.079123791
       6330.8100       7.9070818     0.078209019
       6331.3000       7.8325969     0.077881783
       6331.7900       7.8583603     0.077951663
       6332.2800       7.9274970     0.078439972
       6332.7700       7.9719856     0.078480584
       6333.2600       7.9562568     0.078354328
       6333.7500       7.8137766     0.077497183
       6334.2400       7.8061937     0.077541208
       6334.7300       7.8154700     0.077533974
       6335.2200       7.8143346     0.077738803
       6335.7100       7.9005056     0.078317319
       6336.2000       7.9434780     0.078252705
       6336.6900       7.9215758     0.078241111
       6337.1800       7.8689856     0.078040396
       6337.6700       7.9051496     0.077988065
       6338.1600       7.9228141     0.077959172
       6338.6500       7.8931711     0.077953486
       6339.1400       7.8570564     0.077928443
       6339.6300       7.9191095     0.078270719
       6340.1200       7.8275312     0.077622653
       6340.6100       7.8123589     0.078414039
       6341.1000       7.8066731     0.079528085
       6341.5900       7.8046902     0.077706994
       6342.0800       7.9321191     0.078072881
       6342.5700       7.9039670     0.078026294
       6343.0600       7.9047085     0.077918434
       6343.5500       7.8710392     0.077958849
       6344.0400       7.8724267     0.077999254
       6344.5300       7.8347925     0.077518550
       6345.0200       7.7845559     0.077286320
       6345.5100       7.8100672     0.077731489
       6346.0000       7.8353799     0.078060519
       6346.4900       7.8028106     0.077608358
       6346.9800       7.7499046     0.077218580
       6347.4700       7.8463759     0.077900295
       6347.9600       7.8180004     0.078064607
       6348.4500       7.8503386     0.078215157
       6348.9400       7.9440514     0.078443510
       6349.4300       7.8764775     0.077773458
       6349.9200       7.7795248     0.077200216
       6350.4100       7.7830457     0.077329598
       6350.9000       7.8444301     0.077612547
       6351.3900       7.7882184     0.077313686
       6351.8800       7.7690375     0.077326635
       6352.3700       7.8352087     0.077627454
       6352.8600       7.9118632     0.077902131
       6353.3500       7.9428590     0.077966670
       6353.8400       7.8900479     0.077859072
       6354.3300       7.8733817     0.077950279
       6354.8200       7.9466212     0.078711937
       6355.3100       7.9316066     0.079342768
       6355.8000       7.8423122     0.079142789
       6356.2900       7.9251003     0.079197818
       6356.7800       8.0060487     0.079186337
       6357.2700       7.9194935     0.078619072
       6357.7600       7.8504884     0.078108046
       6358.2500       7.8729234     0.077966426
       6358.7400       7.8709888     0.077911853
       6359.2300       7.7924601     0.077580737
       6359.7200       7.7918574     0.077380892
       6360.2100       7.8884740     0.077682813
       6360.7000       7.8895461     0.077755461
       6361.1900       7.8017714     0.077406179
       6361.6800       7.6843417     0.076789690
       6362.1700       7.7684699     0.077434219
       6362.6600       7.8649036     0.078916910
       6363.1500       7.8553735     0.079884339
       6363.6400       7.8679133     0.079655570
       6364.1300       7.8646896     0.078565601
       6364.6200       7.8065535     0.077605587
       6365.1100       7.8035094     0.077386859
       6365.6000       7.8562060     0.077530760
       6366.0900       7.8342466     0.077384493
       6366.5800       7.7755728     0.077165136
       6367.0700       7.6859768     0.076724872
       6367.5600       7.6998689     0.076764709
       6368.0500       7.7515969     0.077048076
       6368.5400       7.7173812     0.076893458
       6369.0300       7.7375017     0.076933867
       6369.5200       7.7833045     0.077153787
       6370.0100       7.7640125     0.077069417
       6370.5000       7.7785778     0.077135680
       6370.9900       7.8468602     0.077481936
       6371.4800       7.8624391     0.077551357
       6371.9700       7.8069964     0.077259300
       6372.4600       7.6728322     0.076651305
       6372.9500       7.6516310     0.076554610
       6373.4400       7.7822701     0.077186786
       6373.9300       7.7786151     0.077171330
       6374.4200       7.6794725     0.076707011
       6374.9100       7.7710131     0.077138259
       6375.4000       7.7908692     0.077167750
       6375.8900       7.7497095     0.076971147
       6376.3800       7.7815633     0.077160935
       6376.8700       7.7778075     0.077124367
       6377.3600       7.7493068     0.077007157
       6377.8500       7.6842430     0.076822937
       6378.3400       7.6768203     0.076956497
       6378.8300       7.7656939     0.077501352
       6379.3200       7.7773965     0.077436363
       6379.8100       7.8052080     0.077307805
       6380.3000       7.8664425     0.077527299
       6380.7900       7.8169814     0.077292306
       6381.2800       7.7794348     0.077130859
       6381.7700       7.8524725     0.077454022
       6382.2600       7.8712489     0.077533289
       6382.7500       7.9786010     0.078054346
       6383.2400       8.0433264     0.078391813
       6383.7300       8.0165498     0.078274762
       6384.2200       7.9945000     0.078145766
       6384.7100       7.9401204     0.077914074
       6385.2000       7.9780223     0.078370979
       6385.6900       7.9244252     0.078467889
       6386.1800       7.8112960     0.078007363
       6386.6700       7.8373582     0.077820078
       6387.1600       7.8549374     0.077612943
       6387.6500       7.8401296     0.077406986
       6388.1400       7.7939941     0.077133505
       6388.6300       7.7699189     0.077069840
       6389.1200       7.7332716     0.076934152
       6389.6100       7.6840281     0.076673065
       6390.1000       7.6737352     0.076550038
       6390.5900       7.6075583     0.076182218
       6391.0800       7.7076313     0.076670759
       6391.5700       7.8429771     0.077367774
       6392.0600       7.7783621     0.077130929
       6392.5500       7.6968077     0.076718769
       6393.0400       7.7431348     0.076918079
       6393.5300       7.7884132     0.077189622
       6394.0200       7.7631416     0.076991087
       6394.5100       7.7054281     0.076706910
       6395.0000       7.6869081     0.076655888
       6395.4900       7.7854888     0.077088983
       6395.9800       7.8025176     0.077250141
       6396.4700       7.8309613     0.077384440
       6396.9600       7.8234633     0.077295589
       6397.4500       7.7184791     0.076878049
       6397.9400       7.5976471     0.076267508
       6398.4300       7.6077192     0.076262803
       6398.9200       7.6515824     0.076516677
       6399.4100       7.5929050     0.076235965
       6399.9000       7.5986782     0.076189782
       6400.3900       7.7280418     0.076853230
       6400.8800       7.6738442     0.076683712
       6401.3700       7.6046537     0.076355959
       6401.8600       7.7007313     0.076812955
       6402.3500       7.6988865     0.076734897
       6402.8400       7.6060914     0.076250592
       6403.3300       7.5855780     0.076155512
       6403.8200       7.6603835     0.076558024
       6404.3100       7.6860890     0.076695919
       6404.8000       7.5997615     0.076299121
       6405.2900       7.6053588     0.076334147
       6405.7800       7.5853365     0.076189978
       6406.2700       7.7202630     0.076808432
       6406.7600       7.8169235     0.077285898
       6407.2500       7.7829235     0.077167929
       6407.7400       7.7310425     0.076968933
       6408.2300       7.7303180     0.076921383
       6408.7200       7.7274304     0.076892402
       6409.2100       7.7822759     0.077196210
       6409.7000       7.8177123     0.077361707
       6410.1900       7.7128153     0.076841347
       6410.6800       7.7393392     0.076988828
       6411.1700       7.7577299     0.077054172
       6411.6600       7.7957262     0.077216413
       6412.1500       7.6269178     0.076511109
       6412.6400       7.5965810     0.076435044
       6413.1300       7.5765699     0.076472323
       6413.6200       7.5657745     0.076442026
       6414.1100       7.7155815     0.077011535
       6414.6000       7.6686142     0.076655486
       6415.0900       7.5216863     0.075948548
       6415.5800       7.5288223     0.076007861
       6416.0700       7.6161513     0.076421579
       6416.5600       7.6895300     0.076748619
       6417.0500       7.7803286     0.077178392
       6417.5400       7.6630639     0.076694798
       6418.0300       7.6533169     0.076605854
       6418.5200       7.6198060     0.076469149
       6419.0100       7.6015194     0.076544623
       6419.5000       7.7384551     0.077425548
       6419.9900       7.6514985     0.077024396
       6420.4800       7.6212665     0.076685489
       6420.9700       7.7541076     0.077222203
       6421.4600       7.7250518     0.077022679
       6421.9500       7.6811547     0.076824040
       6422.4400       7.7267619     0.076957140
       6422.9300       7.6948755     0.076824558
       6423.4200       7.6655835     0.076801128
       6423.9100       7.6281239     0.076579198
       6424.4000       7.6897596     0.076838736
       6424.8900       7.5435052     0.076201491
       6425.3800       7.6129100     0.076555168
       6425.8700       7.7081398     0.076983566
       6426.3600       7.6118045     0.076458183
       6426.8500       7.5883980     0.076342660
       6427.3400       7.6237798     0.076549390
       6427.8300       7.6666108     0.076820003
       6428.3200       7.5940262     0.076460185
       6428.8100       7.5077216     0.076059526
       6429.3000       7.5547442     0.076275084
       6429.7900       7.5272704     0.076111692
       6430.2800       7.5369877     0.076215457
       6430.7700       7.5640459     0.076318394
       6431.2600       7.5534861     0.076270859
       6431.7500       7.6680952     0.076880046
       6432.2400       7.6850363     0.076923460
       6432.7300       7.6224941     0.076605548
       6433.2200       7.6683099     0.076926492
       6433.7100       7.6578289     0.076858919
       6434.2000       7.5831979     0.076484654
       6434.6900       7.6257323     0.076660275
       6435.1800       7.6753710     0.076808374
       6435.6700       7.6208923     0.076596275
       6436.1600       7.6555172     0.076782091
       6436.6500       7.6984141     0.076973357
       6437.1400       7.7161010     0.077072139
       6437.6300       7.6860868     0.076961101
       6438.1200       7.7715561     0.077441250
       6438.6100       7.7257358     0.077190132
       6439.1000       7.6953726     0.077001232
       6439.5900       7.7423475     0.077268103
       6440.0800       7.6889648     0.077034858
       6440.5700       7.7099962     0.077084450
       6441.0600       7.6644840     0.076883906
       6441.5500       7.6267457     0.076736253
       6442.0400       7.6077076     0.076646515
       6442.5300       7.6045527     0.076656345
       6443.0200       7.6431670     0.076870320
       6443.5100       7.6879123     0.077076524
       6444.0000       7.6532534     0.076909364
       6444.4900       7.6777693     0.077011758
       6444.9800       7.7346585     0.077248624
       6445.4700       7.7051075     0.077174947
       6445.9600       7.6926847     0.077175709
       6446.4500       7.7109280     0.077210786
       6446.9400       7.7093742     0.077179648
       6447.4300       7.6850446     0.077141839
       6447.9200       7.7241999     0.077358095
       6448.4100       7.7263317     0.077357970
       6448.9000       7.7249015     0.077383253
       6449.3900       7.8113377     0.077787187
       6449.8800       7.7516932     0.077453181
       6450.3700       7.7325086     0.077391557
       6450.8600       7.8085077     0.077883257
       6451.3500       7.7686953     0.077770729
       6451.8400       7.7690356     0.077694843
       6452.3300       7.7729504     0.077772415
       6452.8200       7.7940902     0.078114059
       6453.3100       7.8264223     0.078328849
       6453.8000       7.7874405     0.077793426
       6454.2900       7.7436241     0.077497946
       6454.7800       7.7801052     0.077706284
       6455.2700       7.8488589     0.078022546
       6455.7600       7.8621799     0.078158915
       6456.2500       7.8579370     0.078255013
       6456.7400       7.8096365     0.078198639
       6457.2300       7.7911959     0.078204949
       6457.7200       7.8921774     0.078773463
       6458.2100       7.9381511     0.078953345
       6458.7000       7.9138676     0.078842196
       6459.1900       7.8474320     0.078365752
       6459.6800       7.8676885     0.078202310
       6460.1700       7.8940587     0.078507829
       6460.6600       7.8611563     0.078463393
       6461.1500       7.8528674     0.078220661
       6461.6400       7.8314238     0.078040373
       6462.1300       7.8239039     0.078228496
       6462.6200       7.8043498     0.078396814
       6463.1100       7.8092006     0.078559432
       6463.6000       7.8058912     0.078533428
       6464.0900       7.8764586     0.078627350
       6464.5800       7.9402547     0.078977628
       6465.0700       7.9270512     0.079450035
       6465.5600       7.9336621     0.079786533
       6466.0500       7.8706715     0.079138657
       6466.5400       7.8211836     0.078344004
       6467.0300       7.8765014     0.078384619
       6467.5200       7.8484775     0.078219264
       6468.0100       7.7825808     0.077930725
       6468.5000       7.8532047     0.078375134
       6468.9900       7.9674690     0.079101838
       6469.4800       8.0491059     0.079692177
       6469.9700       8.0532403     0.080061572
       6470.4600       7.9488269     0.079777055
       6470.9500       7.9010148     0.079264821
       6471.4400       7.9196388     0.078871093
       6471.9300       7.9211996     0.078696654
       6472.4200       7.9030786     0.078705996
       6472.9100       7.9520561     0.079100422
       6473.4000       8.0118321     0.079306871
       6473.8900       7.9581110     0.078929749
       6474.3800       7.8998194     0.079188703
       6474.8700       7.8919212     0.079720387
       6475.3600       7.8961845     0.079357788
       6475.8500       7.9198101     0.079035742
       6476.3400       7.9378936     0.079218887
       6476.8300       7.9613872     0.079393399
       6477.3200       7.9642560     0.079498167
       6477.8100       7.9889765     0.079473106
       6478.3000       7.9998050     0.079189005
       6478.7900       7.9859356     0.079555708
       6479.2800       8.0093476     0.080119433
       6479.7700       8.0219742     0.079795884
       6480.2600       7.9679447     0.079079370
       6480.7500       8.0215930     0.079350530
       6481.2400       8.1193536     0.079937719
       6481.7300       8.0676994     0.079731090
       6482.2200       7.9341763     0.079358627
       6482.7100       7.7803592     0.078871708
       6483.2000       7.8279364     0.079165848
       6483.6900       8.0077744     0.080026752
       6484.1800       7.9664357     0.079352865
       6484.6700       7.9531771     0.078852142
       6485.1600       8.0581785     0.079496053
       6485.6500       8.0987558     0.079948204
       6486.1400       8.1848262     0.080629422
       6486.6300       8.1089691     0.080207147
       6487.1200       8.0155067     0.079649962
       6487.6100       8.0874534     0.080217926
       6488.1000       8.0516525     0.080103323
       6488.5900       8.0048967     0.079458436
       6489.0800       8.0655709     0.079396605
       6489.5700       8.0895713     0.079768023
       6490.0600       7.9797677     0.079551047
       6490.5500       7.9139414     0.079090808
       6491.0400       8.0466541     0.079451467
       6491.5300       8.0555638     0.079316905
       6492.0200       8.0168432     0.079297555
       6492.5100       8.0952627     0.079909727
       6493.0000       8.0751576     0.079802036
       6493.4900       8.0885538     0.079809394
       6493.9800       8.1987553     0.080371882
       6494.4700       8.2293925     0.080579938
       6494.9600       8.1331003     0.080218957
       6495.4500       8.0149166     0.079716735
       6495.9400       7.9652597     0.079177510
       6496.4300       8.0401554     0.079423296
       6496.9200       8.1167259     0.079980058
       6497.4100       8.1063845     0.080567891
       6497.9000       8.1191184     0.081651999
       6498.3900       8.1346233     0.081931994
       6498.8800       8.0987003     0.081005365
       6499.3700       8.0835727     0.080132288
       6499.8600       8.1215255     0.079907543
       6500.3500       8.1666256     0.080022354
       6500.8400       8.1955813     0.080249672
       6501.3300       8.2405584     0.081037298
       6501.8200       8.1700652     0.080743095
       6502.3100       8.0521316     0.079598867
       6502.8000       8.0541960     0.079563470
       6503.2900       8.0683973     0.079748689
       6503.7800       8.1038985     0.080030053
       6504.2700       8.1392474     0.080571912
       6504.7600       8.0374752     0.080245875
       6505.2500       7.9892881     0.079500515
       6505.7400       8.0430847     0.079440361
       6506.2300       8.0979389     0.079859281
       6506.7200       8.0762926     0.079737412
       6507.2100       8.0214535     0.079379667
       6507.7000       8.0636070     0.079702376
       6508.1900       8.1574895     0.080439455
       6508.6800       8.0905848     0.080063898
       6509.1700       8.0169062     0.079424927
       6509.6600       8.1063836     0.079829413
       6510.1500       8.1261514     0.079964916
       6510.6400       8.0592723     0.079656969
       6511.1300       8.0276116     0.079608600
       6511.6200       8.0735846     0.079807536
       6512.1100       8.1257737     0.079945111
       6512.6000       8.0890799     0.079944578
       6513.0900       8.1916917     0.081259892
       6513.5800       8.2309011     0.082096849
       6514.0700       8.0965186     0.081278939
       6514.5600       8.0856256     0.080853079
       6515.0500       8.2306710     0.082084862
       6515.5400       8.2200172     0.082348824
       6516.0300       8.1249383     0.081681436
       6516.5200       8.2255913     0.081960231
       6517.0100       8.2402671     0.081822189
       6517.5000       8.1284348     0.081000591
       6517.9900       8.1417613     0.080745171
       6518.4800       8.2194054     0.081184045
       6518.9700       8.1931835     0.081111499
       6519.4600       8.1752239     0.081001699
       6519.9500       8.2248998     0.081128287
       6520.4400       8.2458768     0.080943213
       6520.9300       8.1478575     0.080504359
       6521.4200       8.1228017     0.081146357
       6521.9100       8.2576039     0.082672219
       6522.4000       8.2378050     0.082185184
       6522.8900       8.2144834     0.081703912
       6523.3800       8.1369035     0.081047125
       6523.8700       8.2037327     0.080858867
       6524.3600       8.2492301     0.080999003
       6524.8500       8.1849520     0.080842925
       6525.3400       8.2741390     0.081346485
       6525.8300       8.2774950     0.081307890
       6526.3200       8.3074263     0.081413530
       6526.8100       8.2372556     0.081082046
       6527.3000       8.1948155     0.080891708
       6527.7900       8.3411338     0.081754234
       6528.2800       8.3402908     0.082000164
       6528.7700       8.2734474     0.081381723
       6529.2600       8.3862130     0.081873766
       6529.7500       8.4483632     0.082227967
       6530.2400       8.3406390     0.081731073
       6530.7300       8.2778767     0.081497079
       6531.2200       8.3247533     0.081787651
       6531.7100       8.2074036     0.081787844
       6532.2000       8.2167681     0.082857412
       6532.6900       8.2943750     0.083509359
       6533.1800       8.1693935     0.082122379
       6533.6700       8.1190965     0.081604176
       6534.1600       8.1289887     0.081367835
       6534.6500       8.1834001     0.081039341
       6535.1400       8.1980405     0.081100873
       6535.6300       8.1714833     0.081037316
       6536.1200       8.2031053     0.081213125
       6536.6100       8.2604337     0.081449159
       6537.1000       8.3377264     0.081913495
       6537.5900       8.3541101     0.081996910
       6538.0800       8.3801233     0.082116806
       6538.5700       8.3892633     0.082236361
       6539.0600       8.3282388     0.081963312
       6539.5500       8.2905473     0.081728334
       6540.0400       8.3089472     0.081817299
       6540.5300       8.3189773     0.081917428
       6541.0200       8.3060156     0.081867502
       6541.5100       8.2918431     0.081879099
       6542.0000       8.2597498     0.081703008
       6542.4900       8.1524898     0.081243089
       6542.9800       8.1339385     0.081589463
       6543.4700       8.2029264     0.082271331
       6543.9600       8.3362974     0.082736028
       6544.4500       8.3660717     0.082498137
       6544.9400       8.3384007     0.082163267
       6545.4300       8.4513061     0.082683810
       6545.9200       8.4607832     0.082665124
       6546.4100       8.4053103     0.082407135
       6546.9000       8.4187945     0.082516104
       6547.3900       8.3598644     0.082209452
       6547.8800       8.3416900     0.082199669
       6548.3700       8.4015736     0.082478734
       6548.8600       8.4877551     0.082836368
       6549.3500       8.6037114     0.083462922
       6549.8400       8.6328292     0.083612878
       6550.3300       8.5469396     0.083135173
       6550.8200       8.5804035     0.083351236
       6551.3100       8.4752779     0.082922393
       6551.8000       8.3140413     0.082159025
       6552.2900       8.3449442     0.082967343
       6552.7800       8.5007257     0.085001842
       6553.2700       8.6581306     0.086111142
       6553.7600       8.5471243     0.084620460
       6554.2500       8.5130481     0.083580470
       6554.7400       8.5990238     0.083617711
       6555.2300       8.6204591     0.083639312
       6555.7200       8.5979075     0.083572841
       6556.2100       8.6106539     0.083621901
       6556.7000       8.6225830     0.083680184
       6557.1900       8.6003367     0.083493097
       6557.6800       8.5010877     0.083011060
       6558.1700       8.5050882     0.083054984
       6558.6600       8.6495362     0.083805089
       6559.1500       8.6940126     0.084027264
       6559.6400       8.5862520     0.083505514
       6560.1300       8.5935094     0.083564589
       6560.6200       8.5565915     0.083382060
       6561.1100       8.5221104     0.083245007
       6561.6000       8.6573868     0.084077523
       6562.0900       8.6843105     0.084440263
       6562.5800       8.6936187     0.084425768
       6563.0700       8.6798132     0.084157349
       6563.5600       8.6706969     0.084043797
       6564.0500       8.7657180     0.084466003
       6564.5400       8.8891568     0.084963566
       6565.0300       9.0376420     0.085651367
       6565.5200       9.0173274     0.085627812
       6566.0100       8.9964020     0.085587883
       6566.5000       9.1242202     0.086143123
       6566.9900       9.1431755     0.086233548
       6567.4800       9.1066811     0.086313767
       6567.9700       9.0770311     0.086564579
       6568.4600       9.1256286     0.086975868
       6568.9500       9.1943799     0.087015878
       6569.4400       9.1409694     0.086472006
       6569.9300       9.2974713     0.087121106
       6570.4200       9.3401496     0.087259459
       6570.9100       9.2501199     0.086818281
       6571.4000       9.2207063     0.086699238
       6571.8900       9.2687645     0.087021330
       6572.3800       9.5289386     0.088196673
       6572.8700       9.5596617     0.088228443
       6573.3600       9.4804176     0.087914497
       6573.8500       9.5051064     0.088037243
       6574.3400       9.4532572     0.087783780
       6574.8300       9.5478096     0.088242421
       6575.3200       9.6288072     0.088666374
       6575.8100       9.7346121     0.089449937
       6576.3000       9.8846759     0.090959595
       6576.7900       9.8968644     0.091681265
       6577.2800       9.8317377     0.090943287
       6577.7700       9.8714299     0.090280073
       6578.2600       9.8762687     0.089957593
       6578.7500       9.9640870     0.090272461
       6579.2400       10.152752     0.091064229
       6579.7300       10.265087     0.091528252
       6580.2200       10.368037     0.092007309
       6580.7100       10.436220     0.092345557
       6581.2000       10.600302     0.092998636
       6581.6900       10.777986     0.093760437
       6582.1800       10.860481     0.094141080
       6582.6700       10.834625     0.094049566
       6583.1600       10.987249     0.094707547
       6583.6500       11.258537     0.095864072
       6584.1400       11.375066     0.096356167
       6584.6300       11.375656     0.096349997
       6585.1200       11.468192     0.096751629
       6585.6100       11.556381     0.097114369
       6586.1000       11.679011     0.097614358
       6586.5900       11.861505     0.098358461
       6587.0800       12.006719     0.098981503
       6587.5700       12.209197     0.099852247
       6588.0600       12.399426      0.10063886
       6588.5500       12.572801      0.10129917
       6589.0400       12.770396      0.10204766
       6589.5300       12.976414      0.10288394
       6590.0200       13.164758      0.10363159
       6590.5100       13.385263      0.10449657
       6591.0000       13.677503      0.10565181
       6591.4900       13.978406      0.10673543
       6591.9800       14.289658      0.10789279
       6592.4700       14.605844      0.10915930
       6592.9600       15.022827      0.11071669
       6593.4500       15.633417      0.11289356
       6593.9400       16.255855      0.11509316
       6594.4300       16.967832      0.11754303
       6594.9200       17.852093      0.12052443
       6595.4100       18.846861      0.12394137
       6595.9000       20.198674      0.12845587
       6596.3900       22.118605      0.13432456
       6596.8800       24.529101      0.14113892
       6597.3700       27.688682      0.14975939
       6597.8600       31.861977      0.16057177
       6598.3500       36.632122      0.17213284
       6598.8400       42.255569      0.18477508
       6599.3300       49.089396      0.19906867
       6599.8200       56.474893      0.21347159
       6600.3100       62.771218      0.22502457
       6600.8000       66.333098      0.23132678
       6601.2900       67.091636      0.23269878
       6601.7800       65.341240      0.22968252
       6602.2700       61.131846      0.22220701
       6602.7600       55.455102      0.21181896
       6603.2500       48.403882      0.19822820
       6603.7400       40.358298      0.18126222
       6604.2300       32.795961      0.16342643
       6604.7200       27.126414      0.14862939
       6605.2100       23.607991      0.13868336
       6605.7000       21.457902      0.13225009
       6606.1900       20.074533      0.12802748
       6606.6800       18.953983      0.12445178
       6607.1700       18.130622      0.12172096
       6607.6600       17.438461      0.11940171
       6608.1500       16.838512      0.11736316
       6608.6400       16.296401      0.11545988
       6609.1300       15.860860      0.11397864
       6609.6200       15.382269      0.11229817
       6610.1100       14.844655      0.11036384
       6610.6000       14.584065      0.10945660
       6611.0900       14.361464      0.10863766
       6611.5800       14.082758      0.10756154
       6612.0700       13.867186      0.10674164
       6612.5600       13.648063      0.10595076
       6613.0500       13.568488      0.10565365
       6613.5400       13.351670      0.10486752
       6614.0300       13.042763      0.10362486
       6614.5200       12.902745      0.10303932
       6615.0100       12.690291      0.10225255
       6615.5000       12.528788      0.10172394
       6615.9900       12.436280      0.10138272
       6616.4800       12.329183      0.10086220
       6616.9700       12.203313      0.10034411
       6617.4600       12.064488     0.099851630
       6617.9500       11.956698     0.099410397
       6618.4400       11.869503     0.099009782
       6618.9300       11.706216     0.098369967
       6619.4200       11.397745     0.097160844
       6619.9100       11.334457     0.096927742
       6620.4000       11.252126     0.096602976
       6620.8900       11.205321     0.096429090
       6621.3800       11.146651     0.096160603
       6621.8700       10.951307     0.095273049
       6622.3600       10.867948     0.094935282
       6622.8500       10.758153     0.094454060
       6623.3400       10.636278     0.093931241
       6623.8300       10.558069     0.093680242
       6624.3200       10.488812     0.093436364
       6624.8100       10.428617     0.093108357
       6625.3000       10.398478     0.093005104
       6625.7900       10.365748     0.092943040
       6626.2800       10.281247     0.092704939
       6626.7700       10.155268     0.092234894
       6627.2600       10.170899     0.092362154
       6627.7500       10.093146     0.091958308
       6628.2400       9.9738653     0.091319780
       6628.7300       9.9720397     0.091222927
       6629.2200       9.9759170     0.091261975
       6629.7100       9.8039579     0.090464114
       6630.2000       9.7225660     0.090022531
       6630.6900       9.6407545     0.089725230
       6631.1800       9.7297486     0.090224029
       6631.6700       9.5456001     0.089429631
       6632.1600       9.5094065     0.089221208
       6632.6500       9.4828774     0.089157178
       6633.1400       9.4683883     0.089302161
       6633.6300       9.4234758     0.089326382
       6634.1200       9.3901424     0.089145645
       6634.6100       9.3020665     0.088542995
       6635.1000       9.2031582     0.087996632
       6635.5900       9.1547732     0.087755456
       6636.0800       9.1404960     0.087642387
       6636.5700       9.1366227     0.087665114
       6637.0600       9.0316554     0.087185439
       6637.5500       9.0514432     0.087317373
       6638.0400       9.0542416     0.087334450
       6638.5300       9.0196665     0.087159164
       6639.0200       8.9951340     0.087152872
       6639.5100       8.9525782     0.086953317
       6640.0000       9.0134637     0.087188848
       6640.4900       8.9233812     0.086739996
       6640.9800       8.8890818     0.086560264
       6641.4700       8.7893511     0.086080491
       6641.9600       8.9010751     0.086706498
       6642.4500       8.8011732     0.086287723
       6642.9400       8.7725428     0.086113009
       6643.4300       8.8485673     0.086477619
       6643.9200       8.8328349     0.086400362
       6644.4100       8.8043055     0.086197099
       6644.9000       8.6967748     0.085634031
       6645.3900       8.8056220     0.086194682
       6645.8800       8.6849282     0.085625734
       6646.3700       8.7046108     0.085802440
       6646.8600       8.6351671     0.085435551
       6647.3500       8.5779100     0.085217579
       6647.8400       8.5089926     0.084858273
       6648.3300       8.5808334     0.085168030
       6648.8200       8.4922008     0.084791181
       6649.3100       8.4381499     0.084645952
       6649.8000       8.5213481     0.085100600
       6650.2900       8.4225570     0.084508292
       6650.7800       8.4056866     0.084507783
       6651.2700       8.4806639     0.084815021
       6651.7600       8.3823254     0.084267058
       6652.2500       8.4023599     0.084372197
       6652.7400       8.2644480     0.083727329
       6653.2300       8.3731739     0.084296078
       6653.7200       8.2472331     0.083627675
       6654.2100       8.2267907     0.083593106
       6654.7000       8.2684754     0.083833964
       6655.1900       8.2751222     0.083846755
       6655.6800       8.3706145     0.084281048
       6656.1700       8.2412027     0.083637002
       6656.6600       8.3184770     0.084081026
       6657.1500       8.2429358     0.083682473
       6657.6400       8.2502459     0.083725878
       6658.1300       8.2408989     0.083772448
       6658.6200       8.2654302     0.083903370
       6659.1100       8.2090051     0.083553914
       6659.6000       8.1490291     0.083292125
       6660.0900       8.1233020     0.083210044
       6660.5800       8.1759102     0.083508691
       6661.0700       8.0451030     0.082947179
       6661.5600       8.1790192     0.083643097
       6662.0500       8.1318938     0.083401300
       6662.5400       8.0300516     0.082814558
       6663.0300       8.0313085     0.082831807
       6663.5200       8.0315137     0.083223796
       6664.0100       8.0932089     0.083122283
       6664.5000       8.1087693     0.083190752
       6664.9900       8.0892070     0.083097240
       6665.4800       8.0602979     0.082983402
       6665.9700       8.0116245     0.082820922
       6666.4600       8.1246144     0.083418663
       6666.9500       8.0763660     0.083332912
       6667.4400       8.0348111     0.083192376
       6667.9300       8.0490343     0.083136577
       6668.4200       8.0194813     0.082841392
       6668.9100       7.9389427     0.082491293
       6669.4000       7.9642023     0.082571479
       6669.8900       8.0236680     0.082859351
       6670.3800       7.8893747     0.082226222
       6670.8700       7.9385764     0.082493952
       6671.3600       7.9659963     0.082627208
       6671.8500       7.9475077     0.082529060
       6672.3400       7.8371907     0.081951747
       6672.8300       7.8015950     0.081850398
       6673.3200       7.7925637     0.081805650
       6673.8100       7.7760100     0.081781786
       6674.3000       7.7477337     0.081587943
       6674.7900       7.7440486     0.081545284
       6675.2800       7.8243689     0.081943434
       6675.7700       7.7978781     0.081858561
       6676.2600       7.8232853     0.081955895
       6676.7500       7.8857889     0.082324858
       6677.2400       7.8321965     0.082116747
       6677.7300       7.6876354     0.081328576
       6678.2200       7.7819782     0.081779744
       6678.7100       7.7434996     0.081596885
       6679.2000       7.7798917     0.081822704
       6679.6900       7.8620143     0.082236993
       6680.1800       7.7304423     0.081562992
       6680.6700       7.7226045     0.081525559
       6681.1600       7.7418732     0.081680024
       6681.6500       7.7246240     0.081576155
       6682.1400       7.8072244     0.082009260
       6682.6300       7.8011848     0.081962237
       6683.1200       7.7901350     0.081923682
       6683.6100       7.7849611     0.081982391
       6684.1000       7.6789801     0.081430197
       6684.5900       7.6402479     0.081255697
       6685.0800       7.7116060     0.081565339
       6685.5700       7.7085431     0.081611979
       6686.0600       7.7451253     0.081820338
       6686.5500       7.8250816     0.082207437
       6687.0400       7.7618254     0.081906600
       6687.5300       7.6919142     0.081566281
       6688.0200       7.7410681     0.081787605
       6688.5100       7.6362748     0.081237030
       6689.0000       7.6688058     0.081429773
       6689.4900       7.7318377     0.081800445
       6689.9800       7.6892032     0.081581686
       6690.4700       7.6498287     0.081412680
       6690.9600       7.7535427     0.081893180
       6691.4500       7.7361860     0.081809243
       6691.9400       7.6531294     0.081440288
       6692.4300       7.7274821     0.081808089
       6692.9200       7.7251527     0.081829632
       6693.4100       7.6634916     0.081507968
       6693.9000       7.6308790     0.081379495
       6694.3900       7.5201505     0.080876576
       6694.8800       7.5154332     0.080818310
       6695.3700       7.6182002     0.081292380
       6695.8600       7.6906409     0.081646652
       6696.3500       7.6751429     0.081552699
       6696.8400       7.6693675     0.081486709
       6697.3300       7.6098532     0.081230332
       6697.8200       7.5570247     0.081131148
       6698.3100       7.5949909     0.081346379
       6698.8000       7.6067007     0.081392761
       6699.2900       7.5373954     0.080965652
       6699.7800       7.5192665     0.080814028
       6700.2700       7.6316617     0.081404214
       6700.7600       7.5982835     0.081199407
       6701.2500       7.4842977     0.080639225
       6701.7400       7.4911667     0.080721592
       6702.2300       7.5170122     0.080880417
       6702.7200       7.4769047     0.080730202
       6703.2100       7.5008886     0.080891727
       6703.7000       7.5823336     0.081335465
       6704.1900       7.5759269     0.081300449
       6704.6800       7.5651284     0.081185858
       6705.1700       7.5473171     0.081070436
       6705.6600       7.5226833     0.080939527
       6706.1500       7.5408230     0.081063467
       6706.6400       7.5880679     0.081363854
       6707.1300       7.5690949     0.081320682
       6707.6200       7.5045456     0.080981294
       6708.1100       7.4863289     0.080814215
       6708.6000       7.5038473     0.080912027
       6709.0900       7.5116709     0.080996552
       6709.5800       7.5461438     0.081117997
       6710.0700       7.5737010     0.081253317
       6710.5600       7.6421583     0.081582584
       6711.0500       7.7473628     0.082120722
       6711.5400       7.7509879     0.082155365
       6712.0300       7.7360037     0.082063742
       6712.5200       7.7871200     0.082384708
       6713.0100       7.8007037     0.082523572
       6713.5000       7.8269591     0.082667520
       6713.9900       7.9963304     0.083512030
       6714.4800       8.2731498     0.084895988
       6714.9700       8.6250978     0.086698744
       6715.4600       8.8773874     0.087974123
       6715.9500       9.1193910     0.089092468
       6716.4400       9.3530346     0.090220696
       6716.9300       9.3228140     0.090081674
       6717.4200       9.1943732     0.089526006
       6717.9100       9.1825655     0.089524006
       6718.4000       9.0432945     0.088848346
       6718.8900       8.7241506     0.087274090
       6719.3800       8.4348292     0.085825190
       6719.8700       8.1324226     0.084288657
       6720.3600       7.9021920     0.083078438
       6720.8500       7.8650391     0.082950381
       6721.3400       7.8106120     0.082714772
       6721.8300       7.7008031     0.082107314
       6722.3200       7.5657635     0.081425983
       6722.8100       7.5243656     0.081312648
       6723.3000       7.6117528     0.081770011
       6723.7900       7.6346066     0.081845303
       6724.2800       7.6024368     0.081750649
       6724.7700       7.5947472     0.081729932
       6725.2600       7.6754922     0.082114650
       6725.7500       7.5979061     0.081717453
       6726.2400       7.4772266     0.081079540
       6726.7300       7.4273632     0.080803887
       6727.2200       7.4200703     0.080805219
       6727.7100       7.3602248     0.080550347
       6728.2000       7.2839148     0.080175647
       6728.6900       7.3089331     0.080305897
       6729.1800       7.3326799     0.080401908
       6729.6700       7.3902398     0.080727076
       6730.1600       7.3743748     0.080709157
       6730.6500       7.3002834     0.080299534
       6731.1400       7.3028600     0.080296604
       6731.6300       7.3811045     0.080744497
       6732.1200       7.4323979     0.081030195
       6732.6100       7.4150334     0.081008586
       6733.1000       7.3173431     0.080496319
       6733.5900       7.2995260     0.080379324
       6734.0800       7.2597869     0.080185494
       6734.5700       7.2829593     0.080357037
       6735.0600       7.3996789     0.081015647
       6735.5500       7.3156296     0.080618857
       6736.0400       7.2538127     0.080323586
       6736.5300       7.3355242     0.080720069
       6737.0200       7.3037638     0.080557046
       6737.5100       7.2315961     0.080186657
       6738.0000       7.1441480     0.079681217
       6738.4900       7.1896528     0.079941478
       6738.9800       7.3077028     0.080674740
       6739.4700       7.3141587     0.080710974
       6739.9600       7.2586724     0.080384083
       6740.4500       7.2346870     0.080317002
       6740.9400       7.2340135     0.080301610
       6741.4300       7.1303735     0.079763233
       6741.9200       7.0258250     0.079216699
       6742.4100       7.0548175     0.079376711
       6742.9000       7.0806615     0.079558104
       6743.3900       7.0944176     0.079688345
       6743.8800       7.1740166     0.080222398
       6744.3700       7.2072028     0.080442538
       6744.8600       7.2550508     0.080630488
       6745.3500       7.1792339     0.080269019
       6745.8400       7.0689717     0.079683663
       6746.3300       7.0550373     0.079585656
       6746.8200       7.0047443     0.079333278
       6747.3100       7.0883804     0.079764577
       6747.8000       7.0932807     0.079856638
       6748.2900       7.0042189     0.079474056
       6748.7800       7.0230690     0.079541125
       6749.2700       7.0972720     0.079872768
       6749.7600       7.1097297     0.080015322
       6750.2500       7.0617854     0.079781203
       6750.7400       7.0257519     0.079629343
       6751.2300       7.0426653     0.079725886
       6751.7200       7.0715082     0.079802434
       6752.2100       7.0805634     0.080992106
       6752.7000       7.2093983     0.081442576
       6753.1900       7.1944922     0.080639379
       6753.6800       7.0305340     0.079840594
       6754.1700       7.0161241     0.079783429
       6754.6600       7.0564391     0.080017648
       6755.1500       7.0631153     0.080162893
       6755.6400       7.0557302     0.080091437
       6756.1300       6.8938569     0.079267505
       6756.6200       6.9314537     0.079533319
       6757.1100       6.9499655     0.079693320
       6757.6000       6.9573246     0.079643389
       6758.0900       6.9832858     0.079764316
       6758.5800       7.0436413     0.080085165
       6759.0700       7.0153790     0.079950407
       6759.5600       7.0698349     0.080348258
       6760.0500       7.0302483     0.080125683
       6760.5400       6.9451449     0.079690320
       6761.0300       6.9321910     0.079609139
       6761.5200       6.9635695     0.079796977
       6762.0100       7.0394160     0.080295712
       6762.5000       6.9891534     0.080075611
       6762.9900       6.8828009     0.079438674
       6763.4800       6.8158409     0.079112503
       6763.9700       6.9862605     0.080048216
       6764.4600       6.9868344     0.080035691
       6764.9500       6.9136327     0.079711688
       6765.4400       6.9196302     0.079735907
       6765.9300       7.0083536     0.080169796
       6766.4200       6.8505952     0.079390061
       6766.9100       6.9328982     0.079950031
       6767.4000       6.9993313     0.080291420
       6767.8900       6.9884395     0.080227805
       6768.3800       6.9191812     0.079745625
       6768.8700       6.8977195     0.079722580
       6769.3600       6.7947568     0.079219076
       6769.8500       6.8051479     0.079362826
       6770.3400       6.9125768     0.079994652
       6770.8300       6.8775668     0.079756038
       6771.3200       6.9046458     0.079880836
       6771.8100       6.8186857     0.079523553
       6772.3000       6.7844160     0.079323454
       6772.7900       6.7385923     0.079118089
       6773.2800       6.8201699     0.079550448
       6773.7700       6.9305598     0.080188007
       6774.2600       6.7805100     0.079375206
       6774.7500       6.8122164     0.079621264
       6775.2400       6.8102318     0.079638681
       6775.7300       6.7812062     0.079455658
       6776.2200       6.7579743     0.079379846
       6776.7100       6.7157495     0.079076222
       6777.2000       6.7943500     0.079613915
       6777.6900       6.7462962     0.079318516
       6778.1800       6.7656908     0.079448788
       6778.6700       6.8644037     0.080065495
       6779.1600       6.7679000     0.079553331
       6779.6500       6.7109220     0.079277951
       6780.1400       6.7921849     0.079724895
       6780.6300       6.8532937     0.080025563
       6781.1200       6.6366957     0.078860926
       6781.6100       6.8098947     0.079857079
       6782.1000       6.9023503     0.080466261
       6782.5900       6.8858917     0.080380715
       6783.0800       6.7169685     0.079500550
       6783.5700       6.7347281     0.079640265
       6784.0600       6.7649769     0.079828204
       6784.5500       6.8085726     0.080012782
       6785.0400       6.7725554     0.079849556
       6785.5300       6.7827525     0.079911428
       6786.0200       6.7060937     0.079498198
       6786.5100       6.7318555     0.079687447
       6787.0000       6.8366766     0.080347251
       6787.4900       6.8869432     0.080595605
       6787.9800       6.6861085     0.079518541
       6788.4700       6.6237287     0.079247266
       6788.9600       6.7206700     0.079825126
       6789.4500       6.8111053     0.080239754
       6789.9400       6.7949839     0.080095799
       6790.4300       6.7450350     0.079850181
       6790.9200       6.7299003     0.079774969
       6791.4100       6.6887086     0.079697304
       6791.9000       6.7308137     0.079956283
       6792.3900       6.7383180     0.079898505
       6792.8800       6.6663466     0.079454705
       6793.3700       6.6007118     0.079073640
       6793.8600       6.6214521     0.079261375
       6794.3500       6.7323794     0.080000539
       6794.8400       6.7121276     0.079918285
       6795.3300       6.7627953     0.080211523
       6795.8200       6.6888381     0.079780656
       6796.3100       6.7493534     0.080018869
       6796.8000       6.7793291     0.080274292
       6797.2900       6.6864700     0.079796639
       6797.7800       6.7461907     0.080116261
       6798.2700       6.7293895     0.080025967
       6798.7600       6.6433461     0.079683163
       6799.2500       6.6884064     0.080028251
       6799.7400       6.8097251     0.080187795
       6800.2300       6.7465323     0.080132344
       6800.7200       6.7492845     0.080890971
       6801.2100       6.7491097     0.080814177
       6801.7000       6.7538632     0.079480581
       6802.1900       6.7177022     0.079849128
       6802.6800       6.6098043     0.079527755
       6803.1700       6.6741491     0.079878576
       6803.6600       6.6967402     0.080063874
       6804.1500       6.6682383     0.079845345
       6804.6400       6.5833419     0.079326230
       6805.1300       6.7209199     0.080126418
       6805.6200       6.6351306     0.079672082
       6806.1100       6.5492323     0.079225216
       6806.6000       6.5351147     0.079153160
       6807.0900       6.5695788     0.079249781
       6807.5800       6.6253283     0.079653751
       6808.0700       6.7156141     0.080253558
       6808.5600       6.6926383     0.080087694
       6809.0500       6.6239184     0.079675841
       6809.5400       6.6658261     0.079943585
       6810.0300       6.6449502     0.079801594
       6810.5200       6.5378928     0.079140320
       6811.0100       6.5657911     0.079362262
       6811.5000       6.6059935     0.079682135
       6811.9900       6.5943856     0.079592496
       6812.4800       6.5794218     0.079478522
       6812.9700       6.6783713     0.080081607
       6813.4600       6.6665871     0.079985546
       6813.9500       6.6331246     0.079768101
       6814.4400       6.5904791     0.079564709
       6814.9300       6.6610625     0.080089089
       6815.4200       6.5928841     0.079716663
       6815.9100       6.5452910     0.079348830
       6816.4000       6.5330124     0.079209325
       6816.8900       6.4481752     0.078656014
       6817.3800       6.5332198     0.079190119
       6817.8700       6.6643173     0.079990372
       6818.3600       6.7619582     0.080583137
       6818.8500       6.6897920     0.080195549
       6819.3400       6.5984667     0.079597875
       6819.8300       6.5249175     0.079112756
       6820.3200       6.5061361     0.079111129
       6820.8100       6.5709263     0.079535887
       6821.3000       6.5861122     0.079544028
       6821.7900       6.6242929     0.079716981
       6822.2800       6.6180824     0.079667865
       6822.7700       6.5021995     0.078977661
       6823.2600       6.5149214     0.079076330
       6823.7500       6.5609478     0.079331933
       6824.2400       6.5445411     0.079151244
       6824.7300       6.5765711     0.079373644
       6825.2200       6.6601411     0.079928871
       6825.7100       6.7105619     0.080184345
       6826.2000       6.6034034     0.079833638
       6826.6900       6.5222717     0.080180037
       6827.1800       6.6932501     0.081704358
       6827.6700       6.7315404     0.081764769
       6828.1600       6.5526910     0.081044076
       6828.6500       6.5503956     0.082284230
       6829.1400       6.5852833     0.083059718
       6829.6300       6.5285476     0.081632615
       6830.1200       6.6149456     0.080579976
       6830.6100       6.6333868     0.079923432
       6831.1000       6.5320541     0.079213806
       6831.5900       6.5524307     0.079416563
       6832.0800       6.6661336     0.080174441
       6832.5700       6.7049526     0.080652098
       6833.0600       6.6271649     0.081179067
       6833.5500       6.6044608     0.082707717
       6834.0400       6.6481137     0.083320516
       6834.5300       6.6504061     0.081831056
       6835.0200       6.5806401     0.080048326
       6835.5100       6.5901478     0.079639462
       6836.0000       6.6207710     0.079592777
       6836.4900       6.6245763     0.079478207
       6836.9800       6.6768768     0.079807724
       6837.4700       6.6262295     0.079488690
       6837.9600       6.5828709     0.079174959
       6838.4500       6.6090536     0.079360951
       6838.9400       6.6045565     0.079431328
       6839.4300       6.5899000     0.079496565
       6839.9200       6.6255128     0.079874417
       6840.4100       6.6122696     0.079750642
       6840.9000       6.5878116     0.079729480
       6841.3900       6.6398635     0.080449983
       6841.8800       6.6151591     0.080298308
       6842.3700       6.5514598     0.079519750
       6842.8600       6.5160454     0.078900268
       6843.3500       6.5206189     0.078859381
       6843.8400       6.5272037     0.079120039
       6844.3300       6.4969881     0.078623024
       6844.8200       6.5262983     0.078628974
       6845.3100       6.6026751     0.079212425
       6845.8000       6.6619755     0.079540340
       6846.2900       6.6046204     0.079245755
       6846.7800       6.6023651     0.079231600
       6847.2700       6.5633844     0.078911046
       6847.7600       6.4499591     0.078239435
       6848.2500       6.4886629     0.078471600
       6848.7400       6.6018048     0.079169378
       6849.2300       6.5978272     0.079204988
       6849.7200       6.5660380     0.079028294
       6850.2100       6.6128463     0.079355994
       6850.7000       6.5097182     0.078744386
       6851.1900       6.4273468     0.078054312
       6851.6800       6.4842912     0.078364296
       6852.1700       6.5305196     0.078819850
       6852.6600       6.5133809     0.078755696
       6853.1500       6.4887459     0.078557055
       6853.6400       6.5245097     0.078732334
       6854.1300       6.4793029     0.078532938
       6854.6200       6.6191440     0.079677243
       6855.1100       6.5926894     0.079118522
       6855.6000       6.4840679     0.078347718
       6856.0900       6.4136164     0.077922414
       6856.5800       6.4382340     0.078132821
       6857.0700       6.5459249     0.079098267
       6857.5600       6.5421519     0.078761645
       6858.0500       6.4987665     0.078546135
       6858.5400       6.5510897     0.079044399
       6859.0300       6.4214213     0.077988840
       6859.5200       6.4055596     0.077985497
       6860.0100       6.4729858     0.078524320
       6860.5000       6.5473418     0.079147985
       6860.9900       6.5482785     0.079126258
       6861.4800       6.3967765     0.078122874
       6861.9700       6.3328965     0.078239768
       6862.4600       6.5758930     0.080883583
       6862.9500       6.5452581     0.083460020
       6863.4400       6.5464227     0.085906255
       6863.9300       6.3484961     0.082824497
       6864.4200       6.3147559     0.079376523
       6864.9100       6.3592850     0.078493710
       6865.4000       6.3531745     0.078110852
       6865.8900       6.4237265     0.080441792
       6866.3800       6.4750457     0.087549658
       6866.8700       6.4203992     0.098062632
       6867.3600       6.4459558      0.10842693
       6867.8500       6.4330709      0.11448477
       6868.3400       6.4185637      0.11018762
       6868.8300       6.3431586      0.10179741
       6869.3200       6.4829012     0.099497108
       6869.8100       6.5468776     0.098246705
       6870.3000       6.5249137      0.10090550
       6870.7900       6.3524311     0.098426689
       6871.2800       6.3222188     0.095427197
       6871.7700       6.1915602     0.095325678
       6872.2600       6.1893824     0.094019314
       6872.7500       6.3555600     0.092347652
       6873.2400       6.4633298     0.093563414
       6873.7300       6.5435514     0.094804724
       6874.2200       6.4706470     0.092763869
       6874.7100       6.4327886     0.091350752
       6875.2000       6.5382384     0.090478796
       6875.6900       6.5103173     0.089297417
       6876.1800       6.4498824     0.089935136
       6876.6700       6.3858191     0.088530795
       6877.1600       6.3693945     0.085771294
       6877.6500       6.5146063     0.084626736
       6878.1400       6.4859350     0.084792047
       6878.6300       6.4918276     0.086226234
       6879.1200       6.5604185     0.086489945
       6879.6100       6.5278226     0.083571503
       6880.1000       6.6257941     0.081426121
       6880.5900       6.5438818     0.080008400
       6881.0800       6.5248927     0.079589017
       6881.5700       6.4809105     0.078433938
       6882.0600       6.4091490     0.077830298
       6882.5500       6.4087491     0.079766201
       6883.0400       6.3734911     0.082243788
       6883.5300       6.4997981     0.083365711
       6884.0200       6.4350331     0.080821199
       6884.5100       6.3460637     0.080830068
       6885.0000       6.3134305     0.084108240
       6885.4900       6.3800772     0.087410609
       6885.9800       6.4620324     0.088776926
       6886.4700       6.2220835     0.083927722
       6886.9600       6.2792190     0.080314202
       6887.4500       6.4538879     0.080971758
       6887.9400       6.5031301     0.085210469
       6888.4300       6.6318818     0.092665632
       6888.9200       6.4934925     0.093492819
       6889.4100       6.3382127     0.089706943
       6889.9000       6.4710689     0.084402234
       6890.3900       6.3694440     0.079659246
       6890.8800       6.3719633     0.080159064
       6891.3700       6.4125534     0.084603057
       6891.8600       6.3762320     0.088926422
       6892.3500       6.3374849     0.090213917
       6892.8400       6.3869730     0.087909493
       6893.3300       6.4836632     0.083746024
       6893.8200       6.4798883     0.080568175
       6894.3100       6.3680802     0.079038076
       6894.8000       6.3091225     0.081131309
       6895.2900       6.3285834     0.086270865
       6895.7800       6.4780745     0.091209743
       6896.2700       6.3709362     0.089794142
       6896.7600       6.4329266     0.085678236
       6897.2500       6.3904780     0.080597313
       6897.7400       6.3057820     0.077994542
       6898.2300       6.3603121     0.078672384
       6898.7200       6.4563758     0.081981538
       6899.2100       6.5282635     0.087416500
       6899.7000       6.4628519     0.090232874
       6900.1900       6.2679425     0.089044789
       6900.6800       6.2753030     0.084483043
       6901.1700       6.3054095     0.080069488
       6901.6600       6.4068321     0.079032438
       6902.1500       6.4208086     0.078603738
       6902.6400       6.4113787     0.079994671
       6903.1300       6.3609944     0.083102926
       6903.6200       6.4968248     0.087558210
       6904.1100       6.3964157     0.087221337
       6904.6000       6.3102234     0.084132047
       6905.0900       6.3911051     0.081221801
       6905.5800       6.3077740     0.078277826
       6906.0700       6.2660580     0.077210530
       6906.5600       6.3157461     0.077640439
       6907.0500       6.3930224     0.079400143
       6907.5400       6.5477352     0.083239891
       6908.0300       6.4581584     0.085517750
       6908.5200       6.3624546     0.085812712
       6909.0100       6.3935539     0.084228640
       6909.5000       6.4379815     0.081446005
       6909.9900       6.4299010     0.079145157
       6910.4800       6.3275744     0.077814869
       6910.9700       6.4276194     0.078770411
       6911.4600       6.5488412     0.080862467
       6911.9500       6.4146018     0.082639336
       6912.4400       6.4310701     0.085773376
       6912.9300       6.5143115     0.087454944
       6913.4200       6.4020707     0.084737095
       6913.9100       6.2604033     0.080338355
       6914.4000       6.2820940     0.078066149
       6914.8900       6.4221275     0.078386753
       6915.3800       6.4522955     0.078599503
       6915.8700       6.2984565     0.077175229
       6916.3600       6.2939447     0.077274488
       6916.8500       6.3404590     0.078728041
       6917.3400       6.3956506     0.081316049
       6917.8300       6.4377566     0.082635569
       6918.3200       6.4390111     0.082686380
       6918.8100       6.4849562     0.081845939
       6919.3000       6.4204593     0.079099157
       6919.7900       6.3785112     0.077976817
       6920.2800       6.3841165     0.077918986
       6920.7700       6.3895753     0.077801539
       6921.2600       6.4288674     0.078724164
       6921.7500       6.4657864     0.080532633
       6922.2400       6.3835659     0.082588713
       6922.7300       6.3331366     0.084729508
       6923.2200       6.3589306     0.084736315
       6923.7100       6.3629682     0.082231372
       6924.2000       6.3419483     0.079665095
       6924.6900       6.2792097     0.077599928
       6925.1800       6.2421669     0.076612062
       6925.6700       6.3242412     0.077304232
       6926.1600       6.3438365     0.077625580
       6926.6500       6.2988855     0.077188949
       6927.1400       6.3143263     0.078006731
       6927.6300       6.4308882     0.080034511
       6928.1200       6.4427189     0.081154071
       6928.6100       6.3917107     0.081557806
       6929.1000       6.3660062     0.080810442
       6929.5900       6.4158649     0.082271479
       6930.0800       6.4024151     0.083131838
       6930.5700       6.2900423     0.078612986
       6931.0600       6.3594690     0.077684250
       6931.5500       6.3637772     0.077877215
       6932.0400       6.3191968     0.077629233
       6932.5300       6.3186384     0.077798284
       6933.0200       6.2874135     0.078176037
       6933.5100       6.3542472     0.079241614
       6934.0000       6.4320346     0.079851585
       6934.4900       6.3985219     0.079591746
       6934.9800       6.2818843     0.078402789
       6935.4700       6.1837349     0.077095376
       6935.9600       6.2270226     0.076773022
       6936.4500       6.2808805     0.077264765
       6936.9400       6.3043201     0.078537413
       6937.4300       6.3793423     0.079806404
       6937.9200       6.2664775     0.078652845
       6938.4100       6.2459989     0.078754178
       6938.9000       6.3594144     0.081853278
       6939.3900       6.2421623     0.082109811
       6939.8800       6.1857043     0.080466495
       6940.3700       6.2273680     0.079554315
       6940.8600       6.2743155     0.079307795
       6941.3500       6.3173045     0.079304779
       6941.8400       6.3259158     0.079141868
       6942.3300       6.3024142     0.078664665
       6942.8200       6.1471224     0.077335030
       6943.3100       6.1024134     0.077062237
       6943.8000       6.3075881     0.077979378
       6944.2900       6.2859095     0.077065745
       6944.7800       6.1374970     0.075894950
       6945.2700       6.1885862     0.076351751
       6945.7600       6.3072391     0.077648719
       6946.2500       6.2878085     0.078757156
       6946.7400       6.2236949     0.079904978
       6947.2300       6.3336451     0.080763612
       6947.7200       6.3228578     0.080653246
       6948.2100       6.3226161     0.082602637
       6948.7000       6.3610794     0.083854044
       6949.1900       6.1989034     0.080343455
       6949.6800       6.0920715     0.077093161
       6950.1700       6.1933302     0.077337097
       6950.6600       6.3384508     0.078121799
       6951.1500       6.2335557     0.077015475
       6951.6400       6.1469494     0.075966830
       6952.1300       6.2386598     0.076744442
       6952.6200       6.3157565     0.077973610
       6953.1100       6.2489010     0.077913452
       6953.6000       6.1873095     0.077102799
       6954.0900       6.2754629     0.077304227
       6954.5800       6.2752295     0.077126471
       6955.0700       6.3240728     0.078279790
       6955.5600       6.3026455     0.079542084
       6956.0500       6.2960167     0.079818369
       6956.5400       6.2446031     0.078105906
       6957.0300       6.2883091     0.077164447
       6957.5200       6.3564004     0.077539348
       6958.0100       6.3045192     0.077659339
       6958.5000       6.2728144     0.078119793
       6958.9900       6.2716340     0.078241572
       6959.4800       6.2540995     0.077558189
       6959.9700       6.2473677     0.077628116
       6960.4600       6.2462986     0.078340728
       6960.9500       6.1781977     0.077578552
       6961.4400       6.1128442     0.076276755
       6961.9300       6.1628670     0.076007164
       6962.4200       6.2427375     0.076791267
       6962.9100       6.2787637     0.077128126
       6963.4000       6.2708993     0.076896608
       6963.8900       6.2243120     0.076506891
       6964.3800       6.2306184     0.076622496
       6964.8700       6.4313868     0.078186445
       6965.3600       6.3391010     0.077306210
       6965.8500       6.1273177     0.075646290
       6966.3400       6.1521675     0.075801971
       6966.8300       6.1248377     0.075578863
       6967.3200       6.1249997     0.075438931
       6967.8100       6.2335334     0.076300370
       6968.3000       6.3042667     0.076782730
       6968.7900       6.2813898     0.077085336
       6969.2800       6.2177735     0.077855042
       6969.7700       6.1738845     0.078030488
       6970.2600       6.1996735     0.077730740
       6970.7500       6.2307573     0.077393599
       6971.2400       6.1728938     0.076303385
       6971.7300       6.0735157     0.075397440
       6972.2200       6.1569284     0.076209154
       6972.7100       6.2672674     0.076910532
       6973.2000       6.1803999     0.076234947
       6973.6900       6.0870259     0.075519843
       6974.1800       6.1410705     0.075762862
       6974.6700       6.1903018     0.076553817
       6975.1600       6.2222258     0.077108958
       6975.6500       6.1413229     0.075897464
       6976.1400       6.1607965     0.075963571
       6976.6300       6.1342915     0.076142376
       6977.1200       5.9750528     0.076268535
       6977.6100       6.0991160     0.078646690
       6978.1000       6.2487463     0.080069448
       6978.5900       6.1506149     0.078673402
       6979.0800       6.0785284     0.076920640
       6979.5700       6.1620997     0.076867116
       6980.0600       6.0687995     0.076035578
       6980.5500       6.1418291     0.076762752
       6981.0400       6.2299724     0.077480043
       6981.5300       6.1315311     0.075989583
       6982.0200       6.0509419     0.075257178
       6982.5100       6.0129943     0.075250454
       6983.0000       6.1873452     0.076683333
       6983.4900       6.2223730     0.076977217
       6983.9800       6.1074987     0.076251561
       6984.4700       6.0765018     0.075760495
       6984.9600       6.0414181     0.075752383
       6985.4500       6.1363299     0.077652558
       6985.9400       6.1948172     0.078083259
       6986.4300       6.1093667     0.076843631
       6986.9200       6.1610484     0.077146699
       6987.4100       6.0894646     0.076615047
       6987.9000       6.0080575     0.076523554
       6988.3900       6.0080949     0.076699894
       6988.8800       6.1845608     0.077674570
       6989.3700       6.2581091     0.077894571
       6989.8600       6.2203771     0.077505867
       6990.3500       6.1693678     0.076823283
       6990.8400       6.1041281     0.075890741
       6991.3300       6.1776510     0.076763006
       6991.8200       6.0767655     0.076063632
       6992.3100       6.1374606     0.076829165
       6992.8000       6.1464077     0.077886238
       6993.2900       6.0739120     0.077545500
       6993.7800       6.0717460     0.076736082
       6994.2700       6.1742344     0.076846640
       6994.7600       6.1059929     0.075749749
       6995.2500       6.0466038     0.075409674
       6995.7400       6.1056457     0.075830507
       6996.2300       6.1766149     0.076507184
       6996.7200       6.1619129     0.076342209
       6997.2100       6.1323414     0.076360318
       6997.7000       6.0942151     0.077043497
       6998.1900       6.0235370     0.076810343
       6998.6800       5.9851546     0.076655016
       6999.1700       5.9878663     0.075634895
       6999.6600       5.9773547     0.074913753
       7000.1500       6.0029543     0.075270203
       7000.6400       6.1461194     0.076188576
       7001.1300       6.0839967     0.075713652
       7001.6200       6.2019684     0.076803182
       7002.1100       6.1728734     0.077015765
       7002.6000       6.0793372     0.076433291
       7003.0900       6.0536344     0.076456951
       7003.5800       5.9412665     0.076531230
       7004.0700       6.0684833     0.078627284
       7004.5600       6.4001595     0.081243901
       7005.0500       6.2035151     0.078671138
       7005.5400       6.0066073     0.076282307
       7006.0300       6.0159146     0.075862110
       7006.5200       6.1193223     0.076503682
       7007.0100       6.1456095     0.076696438
       7007.5000       6.1093634     0.076492954
       7007.9900       6.0066438     0.075346354
       7008.4800       6.1387769     0.076780014
       7008.9700       6.0780485     0.076154394
       7009.4600       5.9884039     0.075342618
       7009.9500       6.0161093     0.075988874
       7010.4400       5.9726456     0.076786193
       7010.9300       5.9641743     0.077129086
       7011.4200       6.0538141     0.077383628
       7011.9100       6.0855559     0.076639802
       7012.4000       6.1035805     0.076282040
       7012.8900       6.1348834     0.076497699
       7013.3800       6.0017622     0.075158959
       7013.8700       5.9407171     0.074851568
       7014.3600       5.9433578     0.075509165
       7014.8500       6.1145287     0.077034514
       7015.3400       6.1256591     0.077791168
       7015.8300       5.8989494     0.076258741
       7016.3200       5.8913307     0.075546765
       7016.8100       5.9929465     0.075805368
       7017.3000       6.1428500     0.076879975
       7017.7900       6.0545116     0.076336488
       7018.2800       6.0471308     0.076137957
       7018.7700       6.0399043     0.076454121
       7019.2600       5.9009309     0.074856912
       7019.7500       5.9288507     0.074871901
       7020.2400       6.2071706     0.077602224
       7020.7300       6.1111711     0.076665370
       7021.2200       6.0057188     0.075738923
       7021.7100       5.9541518     0.075268571
       7022.2000       5.9547874     0.075774555
       7022.6900       6.0221248     0.076627635
       7023.1800       6.0309058     0.076433948
       7023.6700       6.0993232     0.076456430
       7024.1600       5.9568714     0.075054072
       7024.6500       5.9781143     0.074901930
       7025.1400       5.9780193     0.074882463
       7025.6300       5.9756718     0.075227685
       7026.1200       5.9568769     0.076190282
       7026.6100       5.9948956     0.077093975
       7027.1000       5.9503203     0.076549274
       7027.5900       5.9190686     0.075653731
       7028.0800       5.8818158     0.074558853
       7028.5700       6.0233598     0.075232724
       7029.0600       6.1920615     0.076699443
       7029.5500       6.1467751     0.076621280
       7030.0400       6.1426489     0.076364436
       7030.5300       6.1157693     0.075725025
       7031.0200       6.0849007     0.075516356
       7031.5100       5.9752366     0.074750574
       7032.0000       5.9793045     0.074565059
       7032.4900       5.9657689     0.074701454
       7032.9800       5.9952627     0.075032373
       7033.4700       6.0369248     0.075239338
       7033.9600       6.0967948     0.075884156
       7034.4500       6.1595930     0.076411182
       7034.9400       5.9746966     0.074951610
       7035.4300       6.0144864     0.075115166
       7035.9200       6.1079623     0.075888804
       7036.4100       6.0186004     0.075570649
       7036.9000       6.0964015     0.076402915
       7037.3900       6.1007331     0.076336303
       7037.8800       6.0171967     0.075274479
       7038.3700       6.0086324     0.075664137
       7038.8600       6.0666954     0.077045936
       7039.3500       6.0926112     0.077313145
       7039.8400       6.0880232     0.076903978
       7040.3300       6.0186314     0.075727036
       7040.8200       5.9855432     0.075211348
       7041.3100       5.9793613     0.075520820
       7041.8000       5.9718374     0.075016383
       7042.2900       6.0086524     0.075035627
       7042.7800       5.9504006     0.074911588
       7043.2700       6.0258735     0.075445015
       7043.7600       6.0280713     0.075496576
       7044.2500       6.0281554     0.075701342
       7044.7400       6.1336999     0.076186744
       7045.2300       6.0376595     0.075197387
       7045.7200       6.0427829     0.075712240
       7046.2100       6.0890414     0.076699131
       7046.7000       6.0433812     0.076352113
       7047.1900       5.9527561     0.075741450
       7047.6800       5.9286209     0.075839583
       7048.1700       5.9933136     0.075922626
       7048.6600       5.9386582     0.075060055
       7049.1500       5.9644611     0.075208629
       7049.6400       5.9811389     0.075950118
       7050.1300       5.9514013     0.076179488
       7050.6200       5.9599132     0.075769244
       7051.1100       5.9636036     0.075718254
       7051.6000       6.0616750     0.077002726
       7052.0900       6.0174553     0.076774584
       7052.5800       5.9330635     0.075845743
       7053.0700       5.9260574     0.075323595
       7053.5600       5.9586122     0.075084966
       7054.0500       6.0609144     0.075901647
       7054.5400       5.9877244     0.075327281
       7055.0300       5.9573609     0.075099332
       7055.5200       5.9982232     0.075803228
       7056.0100       5.9238670     0.075603692
       7056.5000       5.8221850     0.074687723
       7056.9900       5.9434546     0.075159088
       7057.4800       5.9677685     0.075219003
       7057.9700       5.9004713     0.074590487
       7058.4600       6.0251806     0.075806212
       7058.9500       6.0583724     0.076261269
       7059.4400       6.0087450     0.075796704
       7059.9300       5.9264058     0.075322551
       7060.4200       5.9559025     0.075534216
       7060.9100       5.9577479     0.075333173
       7061.4000       5.9107360     0.075052755
       7061.8900       5.9723345     0.075670044
       7062.3800       6.1272845     0.076741368
       7062.8700       6.0594728     0.076293588
       7063.3600       5.9355908     0.075080028
       7063.8500       5.9736263     0.075562153
       7064.3400       6.0168386     0.076012752
       7064.8300       5.9686341     0.075196068
       7065.3200       6.0053649     0.075685229
       7065.8100       6.0929408     0.076702853
       7066.3000       6.1244883     0.076781379
       7066.7900       6.0414592     0.076084259
       7067.2800       5.9555989     0.075181376
       7067.7700       5.9037936     0.074612491
       7068.2600       5.9415472     0.074834242
       7068.7500       6.0022445     0.075474274
       7069.2400       6.0067685     0.075896835
       7069.7300       5.9600808     0.075335018
       7070.2200       5.9407944     0.074930027
       7070.7100       5.9999976     0.075243623
       7071.2000       6.0124822     0.075671887
       7071.6900       5.9350449     0.075188276
       7072.1800       6.0619073     0.076251540
       7072.6700       5.9715412     0.075575184
       7073.1600       5.8830607     0.074748348
       7073.6500       5.9133382     0.074926202
       7074.1400       6.0316134     0.075900795
       7074.6300       6.0718565     0.075892806
       7075.1200       5.9731875     0.075082188
       7075.6100       5.9247151     0.074967879
       7076.1000       5.9716197     0.075159072
       7076.5900       5.9450019     0.074995165
       7077.0800       5.8070426     0.074275405
       7077.5700       5.9389853     0.075283878
       7078.0600       6.0162038     0.075865435
       7078.5500       5.8649703     0.074736589
       7079.0400       5.7983802     0.074724478
       7079.5300       5.9280594     0.075539887
       7080.0200       5.9245117     0.075107162
       7080.5100       6.0291476     0.076137320
       7081.0000       6.0770319     0.076277010
       7081.4900       6.0622612     0.075975171
       7081.9800       5.9867807     0.075627353
       7082.4700       5.9075760     0.075131509
       7082.9600       5.9964759     0.076000201
       7083.4500       5.9681961     0.075849425
       7083.9400       5.8796742     0.074746918
       7084.4300       5.9421552     0.074780265
       7084.9200       6.0556272     0.075761001
       7085.4100       6.0667013     0.075872770
       7085.9000       6.0275853     0.075589714
       7086.3900       6.0210836     0.075826763
       7086.8800       6.0008320     0.075418900
       7087.3700       5.9884337     0.075433990
       7087.8600       5.9289628     0.075476406
       7088.3500       5.8816487     0.074981030
       7088.8400       6.0647114     0.076655056
       7089.3300       6.1277433     0.077164883
       7089.8200       6.0609687     0.076200727
       7090.3100       6.1956297     0.077336198
       7090.8000       6.2401156     0.077705189
       7091.2900       6.0828895     0.076037333
       7091.7800       6.0657498     0.075628341
       7092.2700       6.1251264     0.076345171
       7092.7600       6.1971978     0.076957707
       7093.2500       6.0924278     0.076002362
       7093.7400       6.0836780     0.075939074
       7094.2300       6.1438713     0.076030983
       7094.7200       6.1128862     0.075927087
       7095.2100       6.1081171     0.076104095
       7095.7000       6.1231669     0.076174034
       7096.1900       6.2300901     0.077119811
       7096.6800       6.1656970     0.076617124
       7097.1700       6.1221217     0.076570746
       7097.6600       6.1669982     0.076723437
       7098.1500       6.3398614     0.078434396
       7098.6400       6.3156970     0.078303577
       7099.1300       6.1589266     0.076617807
       7099.6200       6.3250135     0.077599463
       7100.1100       6.3605324     0.077909410
       7100.6000       6.3590876     0.078298187
       7101.0900       6.3837757     0.078228734
       7101.5800       6.5346109     0.079369627
       7102.0700       6.5628825     0.079405982
       7102.5600       6.6291151     0.079280516
       7103.0500       6.5897023     0.078860117
       7103.5400       6.8211591     0.080219894
       7104.0300       7.0781619     0.082144496
       7104.5200       7.5072040     0.085137237
       7105.0100       7.6461051     0.084951968
       7105.5000       8.0380665     0.086977152
       7105.9900       8.2158611     0.087595466
       7106.4800       8.3838184     0.089028658
       7106.9700       8.2142045     0.087477255
       7107.4600       8.1996574     0.087330959
       7107.9500       8.1524646     0.087337509
       7108.4400       7.6239811     0.084593138
       7108.9300       7.1914740     0.082769396
       7109.4200       6.7759473     0.080073867
       7109.9100       6.6428563     0.078890012
       7110.4000       6.5436590     0.078117856
       7110.8900       6.2775656     0.076753567
       7111.3800       6.2530287     0.076738676
       7111.8700       6.2812797     0.076784026
       7112.3600       6.1758353     0.076030615
       7112.8500       6.1704394     0.076100001
       7113.3400       6.0871229     0.075627655
       7113.8300       6.1522298     0.076440262
       7114.3200       6.1230001     0.076114087
       7114.8100       6.1670885     0.076017194
       7115.3000       6.1751236     0.076364949
       7115.7900       6.1132083     0.075922854
       7116.2800       6.0617806     0.075794597
       7116.7700       6.1268883     0.076411602
       7117.2600       5.9678310     0.075710904
       7117.7500       6.0659913     0.076522684
       7118.2400       5.9913715     0.075257395
       7118.7300       6.0996289     0.075999304
       7119.2200       6.0272146     0.075591474
       7119.7100       6.1282673     0.076068786
       7120.2000       6.0726721     0.075941939
       7120.6900       5.8886974     0.074449434
       7121.1800       5.9557871     0.075017220
       7121.6700       6.0365662     0.075875920
       7122.1600       5.9104487     0.075293189
       7122.6500       5.8283310     0.074462809
       7123.1400       5.8606826     0.074744291
       7123.6300       5.9884077     0.075908659
       7124.1200       5.8798246     0.074690154
       7124.6100       5.8314038     0.074347196
       7125.1000       5.9303498     0.075041529
       7125.5900       6.0328387     0.075676830
       7126.0800       5.9387310     0.075071158
       7126.5700       5.8576360     0.074784507
       7127.0600       5.7907432     0.074494104
       7127.5500       5.8533620     0.075206303
       7128.0400       5.9450754     0.075745266
       7128.5300       5.9859540     0.076046354
       7129.0200       5.9689989     0.076310728
       7129.5100       5.9199642     0.075853125
       7130.0000       5.8271615     0.075061720
       7130.4900       5.7729265     0.074651655
       7130.9800       5.8040424     0.074530864
       7131.4700       5.7542249     0.074156397
       7131.9600       5.8351200     0.074756432
       7132.4500       5.9411267     0.075470600
       7132.9400       5.7799444     0.074582187
       7133.4300       5.7609626     0.074475194
       7133.9200       5.8627453     0.075107822
       7134.4100       5.8781177     0.075465202
       7134.9000       5.8152818     0.075237161
       7135.3900       5.7940043     0.074795847
       7135.8800       5.9057746     0.075709931
       7136.3700       5.8809661     0.075695811
       7136.8600       5.8482720     0.075416736
       7137.3500       5.8109228     0.074827257
       7137.8400       5.7896220     0.074859351
       7138.3300       5.8358274     0.075238131
       7138.8200       5.7733365     0.074513088
       7139.3100       5.6308068     0.073728029
       7139.8000       5.5645589     0.073785652
       7140.2900       5.6722444     0.074639104
       7140.7800       5.7071202     0.074696041
       7141.2700       5.7081559     0.074755598
       7141.7600       5.8263014     0.075398807
       7142.2500       5.7176234     0.074544511
       7142.7400       5.6903385     0.074611278
       7143.2300       5.7380959     0.075025712
       7143.7200       5.6337517     0.074287644
       7144.2100       5.7465808     0.075328266
       7144.7000       5.8539466     0.076604054
       7145.1900       5.8051718     0.076448080
       7145.6800       5.7908963     0.076053218
       7146.1700       5.7249835     0.074918274
       7146.6600       5.7091781     0.074611256
       7147.1500       5.6787883     0.074748889
       7147.6400       5.6308156     0.074453809
       7148.1300       5.5890217     0.074449095
       7148.6200       5.6065703     0.075236978
       7149.1100       5.6544677     0.075245340
       7149.6000       5.6779087     0.075029345
       7150.0900       5.5729889     0.074121045
       7150.5800       5.6126400     0.074452230
       7151.0700       5.6155521     0.074768507
       7151.5600       5.6124611     0.074732389
       7152.0500       5.5600708     0.074490680
       7152.5400       5.6205425     0.074723851
       7153.0300       5.6416131     0.074736260
       7153.5200       5.5849113     0.074516562
       7154.0100       5.5247748     0.074162957
       7154.5000       5.5044663     0.073959060
       7154.9900       5.5453856     0.073992792
       7155.4800       5.5836232     0.074461709
       7155.9700       5.5737962     0.074617370
       7156.4600       5.5634511     0.074601861
       7156.9500       5.5991590     0.074953330
       7157.4400       5.5170269     0.074231535
       7157.9300       5.4823889     0.074252799
       7158.4200       5.5991172     0.075395473
       7158.9100       5.6834387     0.076018320
       7159.4000       5.5951621     0.075173722
       7159.8900       5.5600024     0.074889282
       7160.3800       5.5830227     0.075121438
       7160.8700       5.6162570     0.075380596
       7161.3600       5.6222409     0.075496627
       7161.8500       5.6390975     0.075989198
       7162.3400       5.5414265     0.075531863
       7162.8300       5.4170226     0.074521366
       7163.3200       5.3894284     0.074410775